Timestamp,F3 Value,F3 Quality,FC5 Value,FC5 Quality,F7 Value,F7 Quality,T7 Value,T7 Quality,P7 Value,P7 Quality,O1 Value,O1 Quality,O2 Value,O2 Quality,P8 Value,P8 Quality,T8 Value,T8 Quality,F8 Value,F8 Quality,AF4 Value,AF4 Quality,FC6 Value,FC6 Quality,F4 Value,F4 Quality,AF3 Value,AF3 Quality,X Value,Y Value,Z Value
2017-03-27 15:03:42.849000,738,0,-58,0,-631,0,-608,0,143,0,711,0,-296,0,-188,0,-6937,0,-549,0,425,0,818,0,190,0,256,0,3,-2,?
2017-03-27 15:03:42.858000,751,0,-72,0,-596,0,-613,0,166,0,727,0,-272,0,-138,0,-6937,0,-537,0,441,0,780,0,187,0,262,0,2,-2,?
2017-03-27 15:03:42.865000,685,0,-72,0,-647,0,-648,0,102,0,680,0,-332,0,-201,0,-6937,0,-584,0,369,0,739,0,136,0,193,0,2,-2,?
2017-03-27 15:03:42.873000,687,0,-64,0,-636,0,-606,0,95,0,672,0,-332,0,-230,0,-6937,0,-568,0,360,0,687,0,145,0,179,0,2,-2,?
2017-03-27 15:03:42.880000,751,6784,-66,0,-568,0,-576,0,184,0,724,0,-269,0,-143,0,-6937,0,-497,0,430,0,572,0,194,0,222,0,2,-2,?
2017-03-27 15:03:42.888000,708,6784,-73,1248,-606,0,-623,0,183,0,708,0,-290,0,-139,0,-6937,0,-527,0,406,0,451,0,163,0,172,0,2,-3,?
2017-03-27 15:03:42.896000,636,6784,-78,1248,-666,0,-635,0,101,0,641,0,-340,0,-240,0,-6937,0,-600,0,329,0,412,0,112,0,98,6376,2,-3,?
2017-03-27 15:03:42.904000,704,6784,-55,1248,-600,432,-574,0,141,0,666,0,-304,0,-231,0,-6937,0,-558,0,364,0,444,0,163,0,154,6376,2,-3,?
2017-03-27 15:03:42.912000,763,6784,-62,1248,-565,432,-576,7136,181,0,696,0,-277,0,-156,0,-6937,0,-512,0,413,0,455,0,199,0,193,6376,2,-3,?
2017-03-27 15:03:42.919000,704,6784,-80,1248,-646,432,-622,7136,97,1192,625,0,-334,0,-190,0,-6937,0,-573,0,355,0,410,0,151,0,123,6376,2,-3,?
2017-03-27 15:03:42.927000,719,6784,-58,1248,-619,432,-579,7136,135,1192,646,784,-331,0,-226,0,-6937,0,-568,0,355,0,408,0,161,0,136,6376,2,-3,?
2017-03-27 15:03:42.935000,796,6784,-59,1248,-524,432,-533,7136,271,1192,763,784,-253,6424,-150,0,-6937,0,-485,0,444,0,455,0,212,0,220,6376,2,-3,?
2017-03-27 15:03:42.943000,722,6784,-81,1248,-611,432,-598,7136,208,1192,722,784,-286,6424,-166,6480,-6937,0,-535,0,396,0,386,0,145,0,159,6376,2,-3,?
2017-03-27 15:03:42.951000,610,6784,-81,1248,-730,432,-637,7136,47,1192,624,784,-371,6424,-285,6480,-6937,7520,-635,0,278,0,297,0,62,0,47,6376,2,-4,?
2017-03-27 15:03:42.959000,686,6784,-30,1248,-642,432,-568,7136,74,1192,690,784,-323,6424,-242,6480,-6937,7520,-566,752,327,0,336,0,122,0,108,6376,2,-4,?
2017-03-27 15:03:42.967000,711,6784,-107,1248,-595,432,-569,7136,133,1192,709,784,-291,6424,-186,6480,-6937,7520,-508,752,378,8136,235,0,157,0,136,6376,3,-4,?
2017-03-27 15:03:42.974000,622,6784,-111,1248,-689,432,-604,7136,111,1192,624,784,-373,6424,-276,6480,-6937,7520,-592,752,310,8136,-7,4640,122,0,75,6376,3,-3,?
2017-03-27 15:03:42.983000,688,6784,86,1248,-669,432,-576,7136,130,1192,651,784,-393,6424,-320,6480,-6937,7520,-601,752,305,8136,-52,4640,109,5368,126,6376,3,-3,?
2017-03-27 15:03:42.991000,715,6784,-133,1248,-585,432,-570,7136,175,1192,724,784,-334,6424,-226,6480,-6937,7520,-504,736,383,8136,75,4640,141,5368,123,6376,3,-3,?
2017-03-27 15:03:42.999000,631,6784,-231,1248,-633,432,-603,7136,130,1192,688,784,-334,6424,-203,6480,-6937,7520,-518,736,356,8128,45,4640,173,5368,72,6376,3,-3,?
2017-03-27 15:03:43.005000,629,6784,45,1248,-701,432,-624,7136,68,1192,639,784,-386,6424,-303,6480,-6937,7520,-607,736,263,8128,-92,4640,116,5368,80,6376,4,-3,?
2017-03-27 15:03:43.014000,673,6784,-52,1248,-610,432,-586,7136,130,1192,686,784,-369,6424,-301,6480,-6937,7520,-575,736,320,8128,-23,4640,143,5368,98,6376,4,-3,?
2017-03-27 15:03:43.023000,691,6784,-115,1248,-555,432,-575,7136,148,1192,703,784,-345,6424,-248,6480,-6937,7520,-550,736,360,8128,27,4640,200,5368,124,6376,4,-2,?
2017-03-27 15:03:43.029000,654,6784,-42,1248,-624,432,-619,7136,112,1192,657,784,-381,6424,-258,6480,-6937,7520,-584,736,287,8128,-56,4640,144,5368,91,6376,4,-2,?
2017-03-27 15:03:43.038000,648,6784,-75,1248,-628,432,-605,7136,140,1192,663,784,-389,6424,-272,6480,-6937,7520,-554,736,292,8128,-34,4640,160,5368,81,6376,4,-2,?
2017-03-27 15:03:43.045000,675,6784,-61,1248,-607,432,-568,7136,118,1192,671,784,-369,6424,-257,6480,-6937,7520,-544,736,319,8128,8,4640,191,5368,112,6376,4,-1,?
2017-03-27 15:03:43.054000,674,6784,-70,1248,-602,432,-565,7136,95,1192,669,784,-353,6424,-223,6480,-6937,7520,-542,736,319,8128,5,4640,175,5368,111,6376,4,-1,?
2017-03-27 15:03:43.061000,700,6784,-62,1248,-567,432,-570,7136,161,1192,702,784,-337,6424,-216,6480,-6937,7520,-501,736,349,8128,34,4640,203,5368,133,6376,3,-1,?
2017-03-27 15:03:43.069000,698,6784,-65,1248,-572,432,-578,7136,186,1192,702,784,-351,6424,-234,6480,-6937,7520,-509,736,349,8128,42,4640,188,5368,127,6376,3,-1,?
2017-03-27 15:03:43.076000,639,6784,-83,1248,-629,432,-596,7136,118,1192,651,784,-389,6424,-246,6480,-6937,7520,-577,736,288,8128,-14,4640,118,5368,67,6376,3,-1,?
2017-03-27 15:03:43.084000,659,6784,-70,1248,-597,432,-588,7136,128,1192,669,784,-366,6424,-237,6480,-6937,7520,-568,736,296,8128,-27,4640,132,5368,77,6376,3,-1,?
2017-03-27 15:03:43.091000,713,6784,-69,1248,-534,432,-554,7136,180,1192,711,784,-321,6424,-252,6480,-6937,7520,-502,736,348,8128,-2,4640,173,5368,122,6376,3,-1,?
2017-03-27 15:03:43.099000,692,6784,-68,1248,-556,432,-558,7136,159,1192,688,784,-338,6424,-228,6480,-6937,7520,-506,736,329,8128,23,4640,142,5368,107,6376,3,-1,?
2017-03-27 15:03:43.107000,657,6784,-73,1248,-578,432,-605,7136,158,1192,653,784,-368,6424,-175,6480,-6937,7520,-541,736,295,8128,-1,4640,109,5368,71,6376,2,-1,?
2017-03-27 15:03:43.116000,649,6784,-76,1248,-569,432,-610,7136,145,1192,632,784,-367,6424,-231,6480,-6937,7520,-540,736,289,8128,-77,4640,113,5368,60,6376,2,-1,?
2017-03-27 15:03:43.123000,666,6784,-68,1248,-550,432,-574,7136,100,1192,637,784,-349,6424,-274,6480,-6937,7520,-490,736,320,8128,202,4640,136,5368,84,6376,2,-1,?
2017-03-27 15:03:43.132000,682,6784,-67,1248,-522,432,-582,7136,125,1192,668,784,-334,6424,-200,6480,-6937,7520,-448,736,356,8128,625,4640,151,5368,113,6376,2,-1,?
2017-03-27 15:03:43.138000,648,6784,-71,1248,-545,432,-623,7136,143,1192,655,784,-355,6424,-205,6480,-6937,7520,-487,736,325,8128,435,4640,131,5368,83,6376,2,-1,?
2017-03-27 15:03:43.147000,605,6784,-79,1248,-587,432,-633,7136,118,1192,629,784,-380,6424,-268,6480,-6937,7520,-528,736,284,8128,-21,4640,109,5368,39,6376,2,-1,?
2017-03-27 15:03:43.154000,637,6784,-69,1248,-552,432,-590,7136,155,1192,664,784,-352,6424,-228,6480,-6937,7520,-483,736,316,8128,-25,4640,129,5368,70,6376,2,-1,?
2017-03-27 15:03:43.163000,698,6784,-59,1248,-490,432,-554,7136,213,1192,695,784,-323,6424,-197,6480,-6937,7520,-425,736,366,8128,132,4640,152,5368,129,6376,2,-1,?
2017-03-27 15:03:43.170000,676,6784,-77,1248,-524,432,-598,7136,121,1192,631,784,-358,6424,-250,6480,-6937,7520,-459,736,343,8128,41,4640,130,5368,114,6376,2,-1,?
2017-03-27 15:03:43.178000,637,6784,-72,1248,-564,432,-629,7136,31,1192,583,784,-389,6424,-270,6480,-6937,7520,-479,736,310,8128,-27,4640,116,5368,92,6376,1,-1,?
2017-03-27 15:03:43.186000,673,6784,-62,1248,-514,432,-573,7136,135,1192,647,784,-370,6424,-246,6480,-6937,7520,-417,736,356,8128,81,4640,146,5368,130,6376,2,-1,?
2017-03-27 15:03:43.194000,714,6784,-68,1248,-475,432,-547,7136,236,1192,700,784,-348,6424,-211,6480,-6937,7520,-380,736,411,8128,179,4640,176,5368,166,6376,2,-2,?
2017-03-27 15:03:43.201000,682,6784,-75,1248,-514,432,-611,7136,174,1192,659,784,-360,6424,-202,6480,-6937,7520,-422,736,371,8128,119,4640,159,5368,142,6376,1,-1,?
2017-03-27 15:03:43.210000,648,6784,-83,1248,-540,432,-625,7136,112,1192,632,784,-369,6424,-250,6480,-6937,7520,-448,736,323,8128,19,4640,131,5368,111,6376,1,-1,?
2017-03-27 15:03:43.217000,678,6784,-74,1248,-513,432,-571,7136,190,1192,679,784,-350,6424,-243,6480,-6937,7520,-406,736,357,8128,55,4640,148,5368,143,6376,1,-1,?
2017-03-27 15:03:43.225000,691,6784,-70,1248,-497,432,-558,7136,187,1192,692,784,-343,6424,-199,6480,-6937,7520,-387,736,372,8128,58,4640,151,5368,168,6376,1,-1,?
2017-03-27 15:03:43.232000,647,6784,-83,1248,-529,432,-617,7136,67,1192,636,784,-375,6424,-276,6480,-6937,7520,-435,736,318,8128,-12,4640,117,5368,133,6376,1,-1,?
2017-03-27 15:03:43.240000,633,6784,-80,1248,-564,432,-642,7136,112,1192,638,784,-396,6424,-325,6480,-6937,7520,-461,736,294,8128,10,4640,103,5368,111,6376,1,-1,?
2017-03-27 15:03:43.248000,685,6784,-68,1248,-517,432,-564,7136,244,1192,718,784,-353,6424,-202,6480,-6937,7520,-405,736,347,8128,70,4640,145,5368,156,6376,1,-1,?
2017-03-27 15:03:43.256000,706,6784,-65,1248,-477,432,-558,7136,192,1192,726,784,-334,6424,-172,6480,-6937,7520,-374,736,379,8128,56,4640,175,5368,181,6376,1,-1,?
2017-03-27 15:03:43.263000,687,6784,-82,1248,-554,432,-647,7136,91,1192,647,784,-390,6424,-297,6480,-6937,7520,-438,736,322,8128,13,4640,132,5368,119,6376,1,-1,?
2017-03-27 15:03:43.271000,714,6784,-77,1248,-591,432,-637,7136,164,1192,654,784,-401,6424,-304,6480,-6937,7520,-465,736,288,8128,19,4640,106,5368,93,6376,1,-1,?
2017-03-27 15:03:43.279000,747,6784,-55,1248,-520,432,-578,7136,241,1192,738,784,-345,6424,-208,6480,-6937,7520,-410,736,336,8128,47,4640,149,5368,152,6376,1,-1,?
2017-03-27 15:03:43.287000,706,6784,-63,1248,-504,432,-605,7136,228,1192,764,784,-335,6424,-191,6480,-6937,7520,-395,736,358,8128,41,4640,166,5368,168,6376,1,-1,?
2017-03-27 15:03:43.296000,633,6784,-78,1248,-576,432,-637,7136,206,1192,716,784,-390,6424,-242,6480,-6937,7520,-445,736,297,8128,26,4640,116,5368,109,6376,1,-1,?
2017-03-27 15:03:43.304000,618,6784,-77,1248,-578,432,-596,7136,189,1192,689,784,-402,6424,-256,6480,-6937,7520,-437,736,274,8128,45,4640,100,5368,91,6376,1,-1,?
2017-03-27 15:03:43.310000,668,6784,-51,1248,-519,432,-570,7136,173,1192,703,784,-356,6424,-222,6480,-6937,7520,-379,736,320,8128,61,4640,145,5368,145,6376,1,-1,?
2017-03-27 15:03:43.319000,683,6784,-61,1248,-534,432,-603,7136,140,1192,688,784,-363,6424,-222,6480,-6937,7520,-394,736,321,8128,37,4640,145,5368,145,6376,1,-1,?
2017-03-27 15:03:43.326000,676,6784,-86,1248,-558,432,-603,7136,163,1192,680,784,-392,6424,-238,6480,-6937,7520,-411,736,311,8128,54,4640,139,5368,120,6376,1,-1,?
2017-03-27 15:03:43.334000,724,6784,-56,1248,-496,432,-567,7136,266,1192,736,784,-344,6424,-186,6480,-6937,7520,-338,736,367,8128,107,4640,193,5368,174,6376,1,-1,?
2017-03-27 15:03:43.342000,720,6784,-63,1248,-468,432,-570,7136,264,1192,744,784,-341,6424,-163,6480,-6937,7520,-313,736,382,8128,89,4640,184,5368,193,6376,1,-1,?
2017-03-27 15:03:43.350000,662,6784,-84,1248,-521,432,-593,7136,129,1192,670,784,-435,6424,-240,6480,-6937,7520,-386,736,321,8128,48,4640,122,5368,134,6376,1,-2,?
2017-03-27 15:03:43.357000,660,6784,-69,1248,-552,432,-613,7136,124,1192,651,784,-462,6424,-273,6480,-6937,7520,-420,736,296,8128,59,4640,120,5368,108,6376,1,-2,?
2017-03-27 15:03:43.365000,669,6784,-75,1248,-541,432,-596,7136,215,1192,691,784,-409,6424,-195,6480,-6937,7520,-396,736,312,8128,58,4640,124,5368,111,6376,1,-2,?
2017-03-27 15:03:43.373000,683,6784,-69,1248,-511,432,-548,7136,194,1192,699,784,-393,6424,-162,6480,-6937,7520,-375,736,330,8128,54,4640,127,5368,131,6376,1,-2,?
2017-03-27 15:03:43.382000,716,6760,-58,1248,-503,432,-570,7136,170,1192,685,784,-374,6424,-233,6480,-6937,7520,-358,736,353,8128,95,4640,154,5368,157,6376,1,-2,?
2017-03-27 15:03:43.389000,685,6760,-81,1232,-558,432,-629,7136,194,1192,686,784,-341,6424,-253,6480,-6937,7520,-382,736,329,8128,81,4640,133,5368,128,6376,1,-2,?
2017-03-27 15:03:43.396000,631,6760,-76,1232,-608,432,-621,7136,188,1192,705,784,-350,6424,-207,6480,-6937,7520,-440,736,266,8128,-2,4640,93,5368,81,6504,1,-2,?
2017-03-27 15:03:43.405000,655,6760,-63,1232,-580,424,-575,7136,193,1192,753,784,-352,6424,-234,6480,-6937,7520,-420,736,274,8128,3,4640,114,5368,98,6504,1,-2,?
2017-03-27 15:03:43.412000,707,6760,-73,1232,-541,424,-564,7328,219,1192,792,784,-329,6424,-279,6480,-6937,7520,-336,736,346,8128,77,4640,151,5368,150,6504,1,-2,?
2017-03-27 15:03:43.421000,718,6760,-56,1232,-540,424,-588,7328,194,1000,793,784,-327,6424,-223,6480,-6937,7520,-306,736,371,8128,87,4640,153,5368,165,6504,0,-2,?
2017-03-27 15:03:43.428000,689,6760,-61,1232,-555,424,-618,7328,160,1000,765,776,-353,6424,-182,6480,-6937,7520,-353,736,331,8128,36,4640,122,5368,124,6504,0,-2,?
2017-03-27 15:03:43.437000,651,6760,-85,1232,-583,424,-606,7328,154,1000,724,776,-376,6176,-252,6480,-6937,7520,-404,736,284,8128,29,4640,96,5368,81,6504,0,-1,?
2017-03-27 15:03:43.443000,673,6760,-68,1232,-564,424,-560,7328,163,1000,723,776,-361,6176,-268,6488,-6937,7520,-354,736,312,8128,93,4640,131,5368,108,6504,0,-1,?
2017-03-27 15:03:43.451000,744,6760,-52,1232,-474,424,-552,7328,237,1000,771,776,-302,6176,-177,6488,-6937,376,-256,736,388,8128,140,4640,172,5368,166,6504,0,-1,?
2017-03-27 15:03:43.458000,720,6760,-75,1232,-470,424,-585,7328,252,1000,744,776,-306,6176,-186,6488,-6937,376,-302,736,357,8128,89,4640,125,5368,131,6504,0,-1,?
2017-03-27 15:03:43.467000,633,6760,-89,1232,-545,424,-597,7328,139,1000,658,776,-378,6176,-286,6488,-6937,376,-395,736,273,8144,38,4640,79,5368,56,6504,0,-1,?
2017-03-27 15:03:43.474000,653,6760,-63,1232,-521,424,-572,7328,114,1000,664,776,-373,6176,-246,6488,-6937,376,-342,736,307,8144,74,4640,120,5368,82,6504,0,-1,?
2017-03-27 15:03:43.482000,710,6760,-62,1232,-451,424,-561,7328,210,1000,708,776,-329,6176,-195,6488,-6937,376,-277,736,367,8144,101,4640,144,5184,134,6504,0,-1,?
2017-03-27 15:03:43.489000,680,6760,-76,1232,-475,424,-571,7328,194,1000,665,776,-354,6176,-288,6488,-6937,376,-326,744,329,8144,72,4640,111,5184,108,6504,0,-1,?
2017-03-27 15:03:43.498000,645,6760,-71,1232,-510,424,-568,7328,110,1000,628,776,-374,6176,-295,6488,-6937,376,-373,744,285,8128,40,4640,94,5184,81,6504,0,0,?
2017-03-27 15:03:43.507000,699,6760,-71,1232,-460,424,-553,7328,177,1000,695,776,-320,6176,-193,6488,-6937,376,-322,744,332,8128,54,4664,120,5184,130,6504,0,0,?
2017-03-27 15:03:43.515000,741,6760,-62,1232,-440,424,-551,7328,240,1000,729,776,-291,6176,-202,6488,-6937,376,-272,744,385,8128,91,4664,152,5184,168,6504,0,1,?
2017-03-27 15:03:43.523000,709,6760,-62,1232,-481,424,-558,7328,187,1000,695,776,-321,6176,-238,6488,-6937,376,-295,744,369,8128,84,4664,142,5184,142,6504,0,1,?
2017-03-27 15:03:43.530000,692,6760,-69,1232,-483,424,-562,7328,202,1000,712,776,-334,6176,-202,6488,-6937,376,-312,744,351,8128,64,4664,131,5184,134,6504,0,1,?
2017-03-27 15:03:43.539000,701,6760,-63,1232,-479,424,-567,7328,232,1000,731,776,-338,6176,-211,6488,-6937,376,-306,744,351,8128,67,4664,162,5184,142,6504,0,0,?
2017-03-27 15:03:43.546000,696,6760,-70,1232,-506,424,-548,7328,150,1000,698,776,-340,6176,-256,6488,-6937,376,-318,744,338,8128,55,4664,191,5184,126,6504,0,0,?
2017-03-27 15:03:43.554000,716,6760,-68,1232,-494,424,-535,7328,115,1000,702,776,-313,6176,-269,6488,-6937,376,-298,744,353,8128,52,4664,214,5184,149,6504,0,0,?
2017-03-27 15:03:43.561000,736,6760,-53,1232,-465,424,-563,7328,197,1000,728,776,-304,6176,-242,6488,-6937,376,-266,744,380,8128,67,4664,236,5184,190,6504,0,0,?
2017-03-27 15:03:43.570000,697,6760,-78,1232,-496,424,-577,7328,210,1000,694,776,-341,6176,-205,6488,-6937,376,-298,744,361,8128,34,4664,213,5184,165,6504,0,0,?
2017-03-27 15:03:43.576000,661,6760,-80,1232,-527,424,-554,7328,148,1000,682,776,-363,6176,-244,6488,-6937,376,-330,744,332,8128,-10,4664,195,5184,137,6504,0,0,?
2017-03-27 15:03:43.584000,664,6760,-54,1232,-516,424,-560,7328,173,1000,742,776,-352,6176,-288,6488,-6937,376,-302,744,342,8128,17,4664,220,5184,155,6504,0,0,?
2017-03-27 15:03:43.593000,699,6760,-65,1232,-488,424,-568,7328,239,1000,800,776,-326,6176,-233,6488,-6937,376,-259,744,392,8128,82,4664,247,5184,190,6504,0,0,?
2017-03-27 15:03:43.600000,752,6760,-68,1232,-458,424,-527,7328,226,1000,829,776,-286,6176,-176,6488,-6937,376,-234,744,440,8128,102,4664,264,5184,230,6504,0,-1,?
2017-03-27 15:03:43.608000,725,6760,-70,1232,-480,424,-535,7328,178,1000,820,776,-298,6176,-209,6488,-6937,376,-258,744,411,8128,64,4664,243,5184,207,6504,0,-1,?
2017-03-27 15:03:43.615000,649,6760,-79,1232,-537,424,-587,7328,179,1000,777,776,-359,6176,-256,6488,-6937,376,-302,744,355,8128,26,4664,204,5184,147,6504,0,-1,?
2017-03-27 15:03:43.623000,671,6760,-74,1232,-523,424,-559,7328,191,1000,762,776,-353,6176,-247,6488,-6937,376,-275,744,387,8128,48,4664,227,5184,163,6504,0,-1,?
2017-03-27 15:03:43.631000,735,6760,-70,1232,-466,424,-526,7328,187,1000,787,776,-302,6176,-208,6488,-6937,376,-217,744,451,8128,96,4664,267,5184,211,6504,0,-1,?
2017-03-27 15:03:43.639000,720,6760,-68,1232,-485,424,-562,7328,220,1000,798,776,-309,6176,-206,6488,-6937,376,-229,744,435,8128,81,4664,240,5184,191,6504,0,-2,?
2017-03-27 15:03:43.647000,657,6760,-78,1232,-547,424,-564,7328,201,1000,777,776,-345,6176,-254,6488,-6937,376,-280,744,373,8128,22,4664,185,5184,132,6504,0,-2,?
2017-03-27 15:03:43.656000,664,6760,-72,1232,-524,424,-519,7328,127,1000,768,776,-329,6176,-253,6488,-6937,376,-271,744,378,8128,28,4664,179,5184,142,6504,0,-2,?
2017-03-27 15:03:43.662000,722,6760,-56,1232,-446,424,-522,7328,168,1000,789,776,-300,6176,-209,6488,-6937,376,-206,744,435,8128,82,4664,189,5184,191,6504,1,-2,?
2017-03-27 15:03:43.671000,708,6760,-67,1232,-453,424,-540,7328,242,1000,785,776,-319,6176,-230,6488,-6937,376,-204,744,434,8128,79,4664,151,5184,175,6504,1,-2,?
2017-03-27 15:03:43.678000,671,6760,-69,1232,-500,424,-509,7328,199,1000,751,776,-336,6176,-249,6488,-6937,376,-253,744,403,8128,54,4664,126,5184,150,6504,1,-2,?
2017-03-27 15:03:43.687000,718,6760,-61,1232,-464,424,-493,7328,170,1000,766,776,-303,6176,-195,6488,-6937,376,-225,744,443,8128,71,4664,158,5184,193,6504,1,-3,?
2017-03-27 15:03:43.694000,743,6760,-65,1232,-441,424,-529,7328,219,1000,797,776,-298,6176,-211,6488,-6937,376,-175,744,470,8128,83,4664,169,5184,221,6504,1,-3,?
2017-03-27 15:03:43.701000,690,6760,-71,1232,-483,424,-552,7328,210,1000,764,776,-347,6176,-301,6488,-6937,376,-212,744,422,8128,58,4664,131,5184,183,6504,1,-3,?
2017-03-27 15:03:43.709000,688,6760,-68,1232,-487,424,-531,7328,159,1000,738,776,-349,6176,-289,6488,-6937,376,-250,744,408,8128,47,4664,128,5184,170,6504,1,-3,?
2017-03-27 15:03:43.717000,753,6760,-61,1232,-451,424,-501,7328,201,1000,787,776,-300,6176,-200,6488,-6937,376,-201,744,461,8128,88,4664,170,5184,214,6504,1,-3,?
2017-03-27 15:03:43.725000,766,6760,-72,1232,-436,424,-508,7328,256,1000,803,776,-308,6176,-177,6488,-6937,376,-163,744,481,8128,114,4664,175,5184,229,6504,2,-3,?
2017-03-27 15:03:43.733000,740,6760,-73,1232,-442,424,-528,7328,237,1000,757,776,-367,6176,-216,6488,-6937,376,-206,744,443,8128,85,4664,148,5184,210,6504,2,-3,?
2017-03-27 15:03:43.742000,727,6760,-65,1232,-459,424,-524,7328,211,1000,740,776,-385,6176,-251,6488,-6937,376,-263,744,410,8128,40,4664,126,5184,189,6504,2,-3,?
2017-03-27 15:03:43.749000,722,6760,-69,1232,-461,424,-507,7328,197,1000,759,776,-363,6176,-232,6488,-6937,376,-262,744,413,8128,31,4664,123,5184,180,6504,2,-3,?
2017-03-27 15:03:43.756000,739,6760,-66,1232,-439,424,-495,7328,185,1000,774,776,-357,6176,-209,6488,-6937,376,-223,744,429,8128,67,4664,143,5184,195,6504,2,-3,?
2017-03-27 15:03:43.764000,739,6760,-75,1232,-454,424,-516,7328,183,1000,765,776,-374,6176,-263,6488,-6937,376,-227,744,422,8128,76,4664,145,5184,193,6504,2,-3,?
2017-03-27 15:03:43.772000,696,6760,-76,1232,-489,424,-545,7328,180,1000,738,776,-390,6176,-291,6488,-6937,376,-262,744,392,8128,21,4664,115,5184,161,6504,2,-3,?
2017-03-27 15:03:43.780000,688,6760,-63,1232,-459,424,-512,7328,181,1000,746,776,-376,6176,-227,6488,-6937,376,-248,744,396,8128,6,4664,114,5184,156,6504,2,-2,?
2017-03-27 15:03:43.787000,722,6760,-68,1232,-425,424,-471,7328,185,1000,784,776,-351,6176,-210,6488,-6937,376,-211,744,426,8128,66,4664,144,5184,178,6504,2,-2,?
2017-03-27 15:03:43.795000,724,6760,-70,1232,-463,424,-502,7328,165,1000,781,776,-354,6176,-273,6488,-6937,376,-226,744,414,8128,75,4664,142,5184,174,6504,2,-2,?
2017-03-27 15:03:43.803000,723,6760,-65,1232,-480,424,-514,7328,176,1000,762,776,-353,6176,-262,6488,-6937,376,-225,744,401,8128,43,4664,132,5184,166,6504,2,-1,?
2017-03-27 15:03:43.811000,749,6760,-66,1232,-448,424,-492,7328,250,1000,786,776,-321,6176,-195,6488,-6937,376,-195,744,421,8128,55,4664,142,5184,185,6504,2,-1,?
2017-03-27 15:03:43.820000,739,6760,-70,1232,-454,424,-507,7328,267,1000,793,776,-322,6176,-207,6488,-6937,376,-227,744,410,8128,31,4664,132,5184,183,6504,2,-1,?
2017-03-27 15:03:43.827000,726,6760,-72,1232,-470,424,-489,7328,223,1000,770,776,-350,6176,-238,6488,-6937,376,-242,744,399,8128,2,4664,119,5184,175,6504,2,-1,?
2017-03-27 15:03:43.834000,746,6760,-64,1232,-462,424,-460,7328,210,1000,782,776,-341,6176,-243,6488,-6937,376,-209,744,411,8128,35,4664,130,5184,181,6504,1,-1,?
2017-03-27 15:03:43.842000,746,6760,-68,1232,-480,424,-498,7328,234,1000,794,776,-325,6176,-252,6488,-6937,376,-214,744,401,8128,38,4664,124,5184,163,6504,1,-1,?
2017-03-27 15:03:43.850000,725,6760,-74,1232,-517,424,-531,7328,191,1000,741,776,-353,6176,-256,6488,-6937,376,-250,744,371,8128,-9,4664,99,5184,139,6504,1,-1,?
2017-03-27 15:03:43.858000,742,6760,-61,1232,-503,424,-505,7328,93,1000,728,776,-363,6176,-253,6488,-6937,376,-252,744,379,8128,1,4664,113,5184,157,6504,1,-1,?
2017-03-27 15:03:43.866000,769,6760,-65,1232,-465,424,-484,7328,153,1000,815,776,-312,6176,-250,6488,-6937,376,-221,744,419,8128,49,4664,146,5184,186,6504,1,-1,?
2017-03-27 15:03:43.873000,734,6760,-78,1232,-497,424,-492,7328,315,1000,848,776,-291,6176,-213,6488,-6937,376,-228,744,405,8128,25,4664,128,5184,168,6504,1,-1,?
2017-03-27 15:03:43.881000,693,6760,-74,1232,-541,424,-490,7328,299,1000,800,776,-319,6176,-182,6488,-6937,376,-253,744,361,8128,-11,4664,98,5184,138,6504,1,-1,?
2017-03-27 15:03:43.889000,745,6752,-56,1232,-482,424,-458,7328,213,1000,812,776,-301,6176,-187,6488,-6937,376,-212,744,407,8128,42,4664,140,5184,187,6504,2,-1,?
2017-03-27 15:03:43.897000,797,6752,-55,1216,-445,424,-465,7328,249,1000,840,776,-276,6176,-187,6488,-6937,376,-181,744,457,8128,84,4664,166,5184,229,6504,2,-1,?
2017-03-27 15:03:43.905000,729,6752,-76,1216,-539,424,-534,7328,228,1000,785,776,-341,6176,-211,6488,-6937,376,-254,744,385,8128,26,4664,99,5184,156,6536,2,-1,?
2017-03-27 15:03:43.913000,694,6752,-66,1216,-573,360,-525,7328,166,1000,757,776,-377,6176,-233,6488,-6937,376,-302,744,343,8128,-13,4664,82,5184,127,6536,2,-1,?
2017-03-27 15:03:43.921000,772,6752,-50,1216,-485,360,-451,7824,230,1000,798,776,-303,6176,-211,6488,-6937,376,-236,744,415,8128,34,4664,142,5184,208,6536,2,-1,?
2017-03-27 15:03:43.929000,783,6752,-69,1216,-479,360,-463,7824,254,1040,798,776,-289,6176,-220,6488,-6937,376,-213,744,429,8128,61,4664,134,5184,222,6536,2,-1,?
2017-03-27 15:03:43.937000,716,6752,-76,1216,-553,360,-514,7824,205,1040,772,768,-367,6176,-257,6488,-6937,376,-268,744,367,8128,30,4664,88,5184,175,6536,2,-1,?
2017-03-27 15:03:43.944000,708,6752,-68,1216,-565,360,-511,7824,216,1040,778,768,-369,6032,-226,6488,-6937,376,-285,744,355,8128,-1,4664,88,5184,175,6536,2,0,?
2017-03-27 15:03:43.953000,740,6752,-62,1216,-535,360,-490,7824,232,1040,786,768,-313,6032,-181,6480,-6937,376,-259,744,377,8128,10,4664,101,5184,192,6536,2,0,?
2017-03-27 15:03:43.959000,739,6752,-64,1216,-544,360,-495,7824,211,1040,781,768,-315,6032,-217,6480,-6937,8,-252,744,377,8128,40,4664,103,5184,183,6536,2,-1,?
2017-03-27 15:03:43.967000,725,6752,-77,1216,-571,360,-507,7824,203,1040,788,768,-330,6032,-267,6480,-6937,8,-268,736,373,8128,23,4664,103,5184,174,6536,2,0,?
2017-03-27 15:03:43.975000,740,6752,-68,1216,-560,360,-488,7824,202,1040,791,768,-311,6032,-256,6480,-6937,8,-265,736,389,8152,-25,4664,112,5184,191,6536,2,0,?
2017-03-27 15:03:43.983000,775,6752,-60,1216,-522,360,-464,7824,255,1040,814,768,-289,6032,-180,6480,-6937,8,-221,736,423,8152,-8,4688,123,5184,219,6536,2,0,?
2017-03-27 15:03:43.991000,768,6752,-74,1216,-544,360,-491,7824,302,1040,839,768,-288,6032,-126,6480,-6937,8,-214,736,416,8152,15,4688,109,5112,210,6536,2,0,?
2017-03-27 15:03:43.999000,723,6752,-78,1216,-605,360,-521,7824,198,1040,793,768,-315,6032,-201,6480,-6937,8,-267,744,376,8152,-28,4688,89,5112,174,6536,2,0,?
2017-03-27 15:03:44.007000,728,6752,-70,1216,-589,360,-497,7824,132,1040,777,768,-327,6032,-282,6480,-6937,8,-268,744,386,8136,-27,4688,106,5112,187,6536,2,0,?
2017-03-27 15:03:44.014000,779,6752,-62,1216,-541,360,-488,7824,206,1040,852,768,-297,6032,-215,6480,-6937,8,-218,744,425,8136,32,4688,132,5112,233,6536,2,0,?
2017-03-27 15:03:44.022000,774,6752,-69,1216,-545,360,-517,7824,223,1040,855,768,-295,6032,-151,6480,-6937,8,-239,744,416,8136,22,4688,112,5112,230,6536,2,0,?
2017-03-27 15:03:44.030000,754,6752,-68,1216,-540,360,-496,7824,188,1040,784,768,-320,6032,-210,6480,-6937,8,-274,744,404,8136,-2,4688,99,5112,222,6536,2,-1,?
2017-03-27 15:03:44.038000,786,6752,-54,1216,-512,360,-468,7824,194,1040,784,768,-321,6032,-237,6480,-6937,8,-238,744,438,8136,44,4688,131,5112,251,6536,2,-1,?
2017-03-27 15:03:44.045000,787,6752,-72,1216,-532,360,-509,7824,190,1040,805,768,-315,6032,-200,6480,-6937,8,-221,744,445,8136,46,4688,128,5112,242,6536,2,-1,?
2017-03-27 15:03:44.054000,762,6752,-80,1216,-541,360,-529,7824,188,1040,790,768,-310,6032,-207,6480,-6937,8,-252,744,417,8136,46,4688,100,5112,216,6536,2,-1,?
2017-03-27 15:03:44.060000,758,6752,-65,1216,-505,360,-503,7824,182,1040,777,768,-327,6032,-260,6480,-6937,8,-278,744,398,8136,103,4688,113,5112,206,6536,2,-1,?
2017-03-27 15:03:44.069000,747,6752,-65,1216,-490,360,-513,7824,142,1040,760,768,-368,6032,-282,6480,-6937,8,-290,744,388,8136,75,4688,154,5112,190,6536,1,-1,?
2017-03-27 15:03:44.077000,775,6752,-63,1216,-454,360,-499,7824,191,1040,792,768,-345,6032,-250,6480,-6937,8,-251,744,423,8136,24,4688,207,5112,224,6536,1,-2,?
2017-03-27 15:03:44.085000,808,6752,-65,1216,-412,360,-462,7824,256,1040,848,768,-296,6032,-268,6480,-6937,8,-214,744,454,8136,59,4688,207,5112,264,6536,1,-2,?
2017-03-27 15:03:44.092000,762,6752,-72,1216,-450,360,-506,7824,205,1040,830,768,-338,6032,-314,6480,-6937,8,-255,744,414,8136,51,4688,133,5112,221,6536,1,-1,?
2017-03-27 15:03:44.099000,718,6752,-73,1216,-504,360,-548,7824,188,1040,794,768,-386,6032,-243,6480,-6937,8,-299,744,380,8136,-38,4688,87,5112,177,6536,1,-1,?
2017-03-27 15:03:44.108000,750,6752,-67,1216,-474,360,-498,7824,205,1040,800,768,-341,6032,-183,6480,-6937,8,-270,744,417,8136,4,4688,120,5112,211,6536,1,-1,?
2017-03-27 15:03:44.115000,795,6752,-57,1216,-413,360,-455,7824,145,1040,811,768,-295,6032,-269,6480,-6937,8,-217,744,466,8136,97,4688,156,5112,261,6536,1,-1,?
2017-03-27 15:03:44.124000,796,6752,-63,1216,-401,360,-474,7824,148,1040,818,768,-309,6032,-287,6480,-6937,8,-202,744,479,8136,44,4688,145,5112,266,6536,1,-1,?
2017-03-27 15:03:44.131000,752,6752,-73,1216,-443,360,-504,7824,218,1040,795,768,-345,6032,-253,6480,-6937,8,-249,744,437,8136,178,4688,118,5112,232,6536,1,-1,?
2017-03-27 15:03:44.139000,712,6752,-72,1216,-468,360,-502,7824,199,1040,748,768,-355,6032,-292,6480,-6937,8,-277,744,395,8136,627,4688,105,5112,205,6536,1,0,?
2017-03-27 15:03:44.147000,745,6752,-68,1216,-424,360,-479,7824,189,1040,774,768,-333,6032,-238,6480,-6937,8,-220,744,435,8136,875,4688,123,5112,239,6536,1,0,?
2017-03-27 15:03:44.156000,783,6752,-61,1216,-397,360,-483,7824,236,1040,819,768,-311,6032,-153,6480,-6937,8,-191,744,469,8136,753,4688,133,5112,270,6536,1,0,?
2017-03-27 15:03:44.164000,740,6752,-69,1216,-438,360,-509,7824,222,1040,781,768,-324,6032,-214,6480,-6937,8,-238,744,424,8136,573,4688,95,5112,229,6536,1,0,?
2017-03-27 15:03:44.172000,707,6752,-72,1216,-459,360,-509,7824,244,1040,768,768,-337,6032,-239,6480,-6937,8,-251,744,408,8136,341,4688,83,5112,207,6536,1,0,?
2017-03-27 15:03:44.179000,754,6752,-55,1216,-414,360,-464,7824,300,1040,820,768,-301,6032,-156,6480,-6937,8,-210,744,455,8136,70,4688,117,5112,253,6536,1,0,?
2017-03-27 15:03:44.187000,770,6752,-61,1216,-417,360,-439,7824,188,1040,807,768,-287,6032,-201,6480,-6937,8,-207,744,452,8136,4,4688,109,5112,253,6536,1,0,?
2017-03-27 15:03:44.194000,712,6752,-75,1216,-492,360,-490,7824,101,1040,753,768,-346,6032,-280,6480,-6937,8,-249,744,396,8136,37,4688,70,5112,196,6536,1,0,?
2017-03-27 15:03:44.204000,685,6752,-73,1216,-521,360,-534,7824,225,1040,764,768,-371,6032,-202,6480,-6937,8,-277,744,376,8136,0,4688,68,5112,183,6536,1,0,?
2017-03-27 15:03:44.210000,718,6752,-62,1216,-493,360,-509,7824,290,1040,794,768,-320,6032,-157,6480,-6937,8,-260,744,394,8136,-13,4688,84,5112,214,6536,1,0,?
2017-03-27 15:03:44.219000,762,6752,-53,1216,-464,360,-480,7824,232,1040,794,768,-291,6032,-200,6480,-6937,8,-210,744,425,8136,33,4688,103,5112,247,6536,1,-1,?
2017-03-27 15:03:44.225000,774,6752,-56,1216,-449,360,-476,7824,232,1040,797,768,-311,6032,-190,6480,-6937,8,-196,744,447,8136,64,4688,118,5112,260,6536,1,-1,?
2017-03-27 15:03:44.233000,737,6752,-57,1216,-480,360,-475,7824,224,1040,790,768,-324,6032,-182,6480,-6937,8,-242,744,417,8136,37,4688,111,5112,232,6536,1,-1,?
2017-03-27 15:03:44.241000,698,6752,-66,1216,-522,360,-478,7824,165,1040,760,768,-330,6032,-219,6480,-6937,8,-261,744,383,8136,11,4688,94,5112,202,6536,1,-1,?
2017-03-27 15:03:44.249000,721,6752,-68,1216,-494,360,-470,7824,196,1040,774,768,-321,6032,-186,6480,-6937,8,-220,744,417,8136,51,4688,111,5112,233,6536,1,-1,?
2017-03-27 15:03:44.257000,758,6752,-57,1216,-456,360,-465,7824,267,1040,832,768,-295,6032,-129,6480,-6937,8,-202,744,445,8136,75,4688,131,5112,265,6536,1,-2,?
2017-03-27 15:03:44.264000,727,6752,-66,1216,-488,360,-476,7824,273,1040,848,768,-286,6032,-154,6480,-6937,8,-225,744,417,8136,51,4688,119,5112,236,6536,1,-2,?
2017-03-27 15:03:44.272000,688,6752,-67,1216,-513,360,-477,7824,238,1040,815,768,-299,6032,-191,6480,-6937,8,-227,744,403,8136,55,4688,114,5112,222,6536,1,-2,?
2017-03-27 15:03:44.280000,693,6752,-60,1216,-497,360,-470,7824,232,1040,819,768,-304,6032,-186,6480,-6937,8,-210,744,424,8136,71,4688,120,5112,239,6536,1,-2,?
2017-03-27 15:03:44.288000,690,6752,-66,1216,-500,360,-472,7824,222,1040,829,768,-306,6032,-198,6480,-6937,8,-232,744,415,8136,38,4688,93,5112,226,6536,1,-3,?
2017-03-27 15:03:44.296000,681,6752,-59,1216,-502,360,-476,7824,171,1040,799,768,-322,6032,-220,6480,-6937,8,-265,744,393,8136,21,4688,77,5112,215,6536,1,-2,?
2017-03-27 15:03:44.305000,721,6752,-53,1216,-459,360,-474,7824,215,1040,821,768,-301,6032,-166,6480,-6937,8,-210,744,441,8136,74,4688,124,5112,259,6536,1,-2,?
2017-03-27 15:03:44.312000,742,6752,-62,1216,-449,360,-466,7824,265,1040,853,768,-284,6032,-140,6480,-6937,8,-170,744,472,8136,77,4688,135,5112,284,6536,2,-3,?
2017-03-27 15:03:44.320000,681,6752,-72,1216,-504,360,-452,7824,178,1040,791,768,-342,6032,-219,6480,-6937,8,-240,744,414,8136,16,4688,80,5112,231,6536,2,-3,?
2017-03-27 15:03:44.327000,657,6752,-73,1216,-517,360,-445,7824,167,1040,758,768,-366,6032,-237,6480,-6937,8,-272,744,395,8136,8,4688,69,5112,209,6536,2,-3,?
2017-03-27 15:03:44.336000,720,6752,-60,1216,-477,360,-453,7824,277,1040,817,768,-316,6032,-182,6480,-6937,8,-216,744,458,8136,45,4688,115,5112,261,6536,2,-3,?
2017-03-27 15:03:44.344000,755,6752,-62,1216,-462,360,-455,7824,269,1040,825,768,-294,6032,-173,6480,-6937,8,-191,744,485,8136,49,4688,128,5112,278,6536,2,-3,?
2017-03-27 15:03:44.350000,738,6752,-65,1216,-470,360,-438,7824,196,1040,780,768,-309,6032,-178,6480,-6937,8,-216,744,456,8136,43,4688,114,5112,254,6536,2,-3,?
2017-03-27 15:03:44.358000,717,6752,-61,1216,-486,360,-442,7824,198,1040,774,768,-314,6032,-197,6480,-6937,8,-246,744,437,8136,31,4688,130,5112,241,6536,2,-3,?
2017-03-27 15:03:44.366000,695,6752,-72,1216,-514,360,-475,7824,200,1040,779,768,-341,6032,-243,6480,-6937,8,-265,744,423,8136,-2,4688,167,5112,228,6536,2,-3,?
2017-03-27 15:03:44.374000,710,6752,-65,1216,-501,360,-464,7824,213,1040,786,768,-353,6032,-219,6480,-6937,8,-230,744,440,8136,18,4688,210,5112,243,6536,2,-2,?
2017-03-27 15:03:44.382000,735,6752,-57,1216,-462,360,-434,7824,234,1040,803,768,-336,6032,-175,6480,-6937,8,-197,744,465,8136,48,4688,213,5112,267,6536,2,-2,?
2017-03-27 15:03:44.390000,706,6776,-70,1216,-484,360,-462,7824,195,1040,787,768,-363,6032,-217,6480,-6937,8,-254,744,434,8136,-1,4688,166,5112,241,6536,2,-2,?
2017-03-27 15:03:44.397000,685,6776,-68,1240,-529,360,-481,7824,171,1040,775,768,-383,6032,-236,6480,-6937,8,-291,744,409,8136,-39,4688,156,5112,214,6536,2,-2,?
2017-03-27 15:03:44.405000,721,6776,-61,1240,-516,360,-451,7824,179,1040,788,768,-338,6032,-238,6480,-6937,8,-238,744,447,8136,19,4688,188,5112,234,6528,2,-2,?
2017-03-27 15:03:44.413000,741,6776,-56,1240,-491,368,-459,7824,177,1040,774,768,-307,6032,-282,6480,-6937,8,-221,744,472,8136,59,4688,195,5112,250,6528,2,-2,?
2017-03-27 15:03:44.421000,699,6776,-65,1240,-520,368,-493,8000,144,1040,752,768,-352,6032,-273,6480,-6937,8,-284,744,420,8136,-3,4688,142,5112,207,6528,2,-1,?
2017-03-27 15:03:44.428000,662,6776,-76,1240,-549,368,-472,8000,132,1040,770,768,-393,6032,-210,6480,-6937,8,-308,744,377,8136,-45,4688,83,5112,165,6528,2,-1,?
2017-03-27 15:03:44.436000,682,6776,-65,1240,-527,368,-437,8000,208,1040,788,768,-358,6032,-199,6480,-6937,8,-258,744,417,8136,5,4688,73,5112,191,6528,2,-1,?
2017-03-27 15:03:44.444000,704,6776,-61,1240,-497,368,-439,8000,271,1040,784,768,-318,6016,-244,6480,-6937,8,-239,744,451,8136,41,4688,72,5112,218,6528,2,-1,?
2017-03-27 15:03:44.453000,698,6776,-63,1240,-500,368,-464,8000,232,1040,783,768,-331,6016,-244,6552,-6937,8,-268,744,427,8136,9,4688,62,5112,203,6528,2,-1,?
2017-03-27 15:03:44.460000,669,6776,-67,1240,-534,368,-483,8000,165,1040,765,768,-354,6016,-236,6552,-6937,8,-297,744,386,8136,-25,4688,47,5112,168,6528,2,-1,?
2017-03-27 15:03:44.468000,680,6776,-68,1240,-528,368,-456,8000,206,1040,779,768,-335,6016,-213,6552,-6937,8,-273,760,399,8136,-1,4688,66,5112,179,6528,2,-1,?
2017-03-27 15:03:44.476000,728,6776,-62,1240,-486,368,-439,8000,261,1040,829,768,-297,6016,-158,6552,-6937,8,-224,760,433,8136,24,4688,131,5112,220,6528,2,-1,?
2017-03-27 15:03:44.483000,701,6776,-71,1240,-507,368,-446,8000,168,1040,783,768,-300,6016,-199,6552,-6937,8,-245,760,401,8136,-19,4696,154,5112,195,6528,2,-1,?
2017-03-27 15:03:44.491000,667,6776,-65,1240,-541,368,-416,8000,112,1040,730,768,-329,6016,-258,6552,-6937,8,-272,760,373,8136,-40,4696,151,5104,165,6528,2,-1,?
2017-03-27 15:03:44.499000,718,6776,-51,1240,-496,368,-405,8000,235,1040,798,768,-325,6016,-208,6552,-6937,8,-224,752,424,8136,17,4696,172,5104,207,6528,2,-1,?
2017-03-27 15:03:44.507000,758,6776,-63,1240,-452,368,-423,8000,343,1040,856,768,-292,6016,-145,6552,-6937,8,-181,752,471,8128,52,4696,163,5104,243,6528,2,-1,?
2017-03-27 15:03:44.515000,716,6776,-70,1240,-498,368,-421,8000,265,1040,804,768,-299,6016,-188,6552,-6937,8,-213,752,431,8128,15,4672,102,5104,204,6528,2,-1,?
2017-03-27 15:03:44.522000,668,6776,-74,1240,-542,368,-427,8000,173,1040,753,768,-332,6016,-220,6552,-6937,8,-252,752,380,8128,-17,4672,66,5104,151,6528,2,-1,?
2017-03-27 15:03:44.530000,678,6776,-69,1240,-520,368,-430,8000,194,1040,773,768,-318,6016,-172,6552,-6937,8,-239,752,392,8128,-16,4672,92,5104,157,6528,2,-2,?
2017-03-27 15:03:44.539000,710,6776,-54,1240,-500,368,-415,8000,232,1040,804,768,-291,6016,-160,6552,-6937,8,-209,752,424,8128,4,4672,117,5104,190,6528,2,-2,?
2017-03-27 15:03:44.547000,725,6776,-60,1240,-507,368,-426,8000,249,1040,801,768,-289,6016,-180,6552,-6937,8,-182,752,435,8128,46,4672,118,5104,196,6528,2,-2,?
2017-03-27 15:03:44.555000,730,6776,-61,1240,-495,368,-421,8000,240,1040,783,768,-274,6016,-163,6552,-6937,8,-166,752,433,8128,73,4672,122,5104,188,6528,3,-2,?
2017-03-27 15:03:44.563000,742,6776,-60,1240,-473,368,-395,8000,230,1040,782,768,-256,6016,-128,6552,-6937,8,-159,752,441,8128,81,4672,127,5104,196,6528,3,-2,?
2017-03-27 15:03:44.570000,736,6776,-63,1240,-490,368,-424,8000,222,1040,770,768,-283,6016,-150,6552,-6937,8,-170,752,441,8128,104,4672,118,5104,197,6528,3,-2,?
2017-03-27 15:03:44.577000,714,6776,-61,1240,-522,368,-445,8000,201,1040,742,768,-316,6016,-185,6552,-6937,8,-187,752,425,8128,103,4672,102,5104,181,6528,3,-3,?
2017-03-27 15:03:44.586000,728,6776,-65,1240,-506,368,-411,8000,180,1040,756,768,-303,6016,-182,6552,-6937,8,-175,752,434,8128,73,4672,108,5104,184,6528,3,-2,?
2017-03-27 15:03:44.593000,746,6776,-60,1240,-483,368,-402,8000,179,1040,788,768,-287,6016,-172,6552,-6937,8,-164,752,444,8128,69,4672,118,5104,197,6528,2,-2,?
2017-03-27 15:03:44.603000,724,6776,-57,1240,-498,368,-414,8000,202,1040,778,768,-293,6016,-150,6552,-6937,8,-174,752,428,8128,72,4672,102,5104,184,6528,2,-2,?
2017-03-27 15:03:44.610000,704,6776,-64,1240,-513,368,-413,8000,202,1040,758,768,-296,6016,-151,6552,-6937,8,-179,752,410,8128,48,4672,79,5104,159,6528,2,-1,?
2017-03-27 15:03:44.616000,689,6776,-63,1240,-515,368,-420,8000,178,1040,751,768,-312,6016,-190,6552,-6937,8,-190,752,384,8128,19,4672,65,5104,133,6528,2,-1,?
2017-03-27 15:03:44.624000,666,6776,-65,1240,-506,368,-398,8000,169,1040,736,768,-336,6016,-209,6552,-6937,8,-203,752,358,8128,16,4672,57,5104,103,6528,2,-1,?
2017-03-27 15:03:44.633000,676,6776,-57,1240,-485,368,-377,8000,173,1040,724,768,-328,6016,-199,6552,-6937,8,-191,752,360,8128,26,4672,64,5104,101,6528,2,-1,?
2017-03-27 15:03:44.640000,696,6776,-56,1240,-481,368,-404,8000,185,1040,718,768,-314,6016,-192,6552,-6937,8,-178,752,363,8128,31,4672,70,5104,102,6528,2,-1,?
2017-03-27 15:03:44.648000,684,6776,-65,1240,-499,368,-417,8000,200,1040,697,768,-333,6016,-168,6552,-6937,8,-195,752,347,8128,22,4672,66,5104,83,6528,1,-1,?
2017-03-27 15:03:44.656000,669,6776,-56,1240,-511,368,-407,8000,180,1040,654,768,-358,6016,-160,6552,-6937,8,-222,752,325,8128,-4,4672,52,5104,61,6528,1,-1,?
2017-03-27 15:03:44.663000,663,6776,-57,1240,-509,368,-420,8000,138,1040,633,768,-363,6016,-198,6552,-6937,8,-221,752,312,8128,-9,4672,35,5104,43,6528,1,-1,?
2017-03-27 15:03:44.671000,636,6776,-66,1240,-539,368,-459,8000,117,1040,631,768,-365,6016,-226,6552,-6937,8,-227,752,288,8128,7,4672,23,5104,21,6528,1,-2,?
2017-03-27 15:03:44.679000,601,6776,-66,1240,-581,368,-472,8000,106,1040,605,768,-393,6016,-229,6552,-6937,8,-263,752,249,8128,-13,4672,3,5104,-7,6528,2,-2,?
2017-03-27 15:03:44.687000,605,6776,-62,1240,-564,368,-444,8000,88,1040,586,768,-407,6016,-231,6552,-6937,8,-275,752,252,8128,-46,4672,3,5104,-5,6528,2,-2,?
2017-03-27 15:03:44.695000,627,6776,-54,1240,-539,368,-440,8000,73,1040,603,768,-387,6016,-237,6552,-6937,8,-252,752,285,8128,-26,4672,36,5104,19,6528,2,-3,?
2017-03-27 15:03:44.702000,628,6776,-62,1240,-560,368,-456,8000,97,1040,631,768,-373,6016,-226,6552,-6937,8,-238,752,301,8128,7,4672,52,5104,19,6528,2,-3,?
2017-03-27 15:03:44.710000,624,6776,-67,1240,-572,368,-433,8000,137,1040,653,768,-384,6016,-221,6552,-6937,8,-240,752,307,8128,-10,4672,42,5104,11,6528,2,-3,?
2017-03-27 15:03:44.718000,615,6776,-61,1240,-579,368,-430,8000,104,1040,660,768,-410,6016,-254,6552,-6937,8,-259,752,297,8128,-44,4672,31,5104,-4,6528,2,-1,?
2017-03-27 15:03:44.726000,597,6776,-69,1240,-609,368,-461,8000,59,1040,650,768,-439,6016,-290,6552,-6937,8,-281,752,270,8128,-46,4672,28,5104,-29,6528,2,0,?
2017-03-27 15:03:44.734000,612,6776,-63,1240,-601,368,-432,8000,111,1040,670,768,-433,6016,-285,6552,-6937,8,-265,752,281,8128,-18,4672,53,5104,-23,6528,2,0,?
2017-03-27 15:03:44.741000,638,6776,-58,1240,-563,368,-381,8000,148,1040,702,768,-410,6016,-261,6552,-6937,8,-234,752,326,8128,-11,4672,74,5104,10,6528,2,-1,?
2017-03-27 15:03:44.749000,626,6776,-64,1240,-582,368,-394,8000,83,1040,682,768,-429,6016,-278,6552,-6937,8,-243,752,323,8128,-43,4672,60,5104,10,6528,1,-2,?
2017-03-27 15:03:44.757000,612,6776,-61,1240,-620,368,-411,8000,69,1040,667,768,-438,6016,-288,6552,-6937,8,-272,752,297,8128,-46,4672,55,5104,-5,6528,1,-3,?
2017-03-27 15:03:44.765000,628,6776,-61,1240,-608,368,-406,8000,146,1040,700,768,-402,6016,-250,6552,-6937,8,-270,752,308,8128,0,4672,72,5104,25,6528,1,-4,?
2017-03-27 15:03:44.774000,633,6776,-55,1240,-593,368,-398,8000,162,1040,697,768,-406,6016,-234,6552,-6937,8,-269,752,313,8128,7,4672,77,5104,58,6528,1,-4,?
2017-03-27 15:03:44.781000,629,6776,-56,1240,-605,368,-379,8000,125,1040,662,768,-436,6016,-255,6552,-6937,8,-272,752,321,8128,-13,4672,81,5104,47,6528,1,-4,?
2017-03-27 15:03:44.788000,645,6776,-66,1240,-613,368,-393,8000,116,1040,672,768,-427,6016,-257,6552,-6937,8,-243,752,355,8128,9,4672,90,5104,20,6528,2,-4,?
2017-03-27 15:03:44.797000,648,6776,-63,1240,-631,368,-404,8000,108,1040,693,768,-426,6016,-256,6552,-6937,8,-235,752,356,8128,16,4672,73,5104,-17,6528,2,-4,?
2017-03-27 15:03:44.805000,635,6776,-65,1240,-648,368,-391,8000,96,1040,697,768,-446,6016,-279,6552,-6937,8,-252,752,342,8128,-11,4672,63,5104,-57,6528,2,-3,?
2017-03-27 15:03:44.812000,658,6776,-60,1240,-640,368,-390,8000,87,1040,697,768,-442,6016,-283,6552,-6937,8,-242,752,369,8128,5,4672,91,5104,-61,6528,2,-3,?
2017-03-27 15:03:44.822000,684,6776,-60,1240,-622,368,-376,8000,75,1040,697,768,-438,6016,-267,6552,-6937,8,-207,752,401,8128,40,4672,108,5104,-57,6528,2,-2,?
2017-03-27 15:03:44.827000,675,6776,-65,1240,-621,368,-369,8000,86,1040,708,768,-445,6016,-258,6552,-6937,8,-189,752,392,8128,26,4672,102,5104,-76,6528,2,0,?
2017-03-27 15:03:44.836000,660,6776,-54,1240,-627,368,-364,8000,101,1040,711,768,-434,6016,-274,6552,-6937,8,-206,752,370,8128,-9,4672,96,5104,-86,6528,2,1,?
2017-03-27 15:03:44.843000,650,6776,-60,1240,-634,368,-335,8000,82,1040,672,768,-430,6016,-297,6552,-6937,8,-218,752,360,8128,-1,4672,80,5104,-87,6528,3,2,?
2017-03-27 15:03:44.851000,634,6776,-68,1240,-659,368,-315,8000,54,1040,620,768,-458,6016,-299,6552,-6937,8,-231,752,328,8128,4,4672,62,5104,-103,6528,2,2,?
2017-03-27 15:03:44.860000,650,6776,-61,1240,-665,368,-290,8000,60,1040,620,768,-446,6016,-272,6552,-6937,8,-247,752,295,8128,-35,4672,67,5104,-107,6528,2,2,?
2017-03-27 15:03:44.867000,700,6776,-56,1240,-632,368,-228,8000,91,1040,638,768,-389,6016,-230,6552,-6937,8,-222,752,309,8128,-30,4672,94,5104,-74,6528,2,3,?
2017-03-27 15:03:44.875000,686,6776,-59,1240,-654,368,-243,8000,88,1040,608,768,-399,6016,-257,6552,-6937,8,-228,752,293,8128,6,4672,112,5104,-78,6528,2,3,?
2017-03-27 15:03:44.882000,615,6776,-70,1240,-722,368,-315,8000,25,1040,518,768,-459,6016,-316,6552,-6937,8,-303,752,215,8128,-26,4672,112,5104,-137,6528,2,2,?
2017-03-27 15:03:44.890000,596,6776,-66,1240,-740,368,-304,8000,-38,1040,431,768,-485,6016,-321,6552,-6937,8,-353,752,163,8128,-84,4672,112,5104,-164,6528,2,2,?
2017-03-27 15:03:44.898000,610,6776,-60,1240,-749,368,-294,8000,-36,1040,423,768,-507,6016,-336,6552,-6937,8,-374,752,155,8128,-111,4672,83,5104,-157,6528,2,1,?
2017-03-27 15:03:44.907000,609,6776,-68,1216,-811,368,-292,8000,5,1040,488,768,-520,6016,-365,6552,-6937,8,-381,752,166,8128,-103,4672,48,5104,-152,6528,2,1,?
2017-03-27 15:03:44.913000,608,6776,-61,1216,-890,368,-278,8000,-14,1040,512,768,-512,6016,-362,6552,-6937,8,-358,752,191,8128,-69,4672,47,5104,-155,6528,2,0,?
2017-03-27 15:03:44.921000,591,6776,-63,1216,-937,352,-298,8000,-77,1040,464,768,-543,6016,-382,6552,-6937,8,-376,752,189,8128,-83,4672,30,5104,-186,6528,2,-1,?
2017-03-27 15:03:44.929000,589,6776,-64,1216,-912,352,-289,8008,-63,1040,489,768,-569,6016,-398,6552,-6937,8,-421,752,185,8128,-133,4672,14,5104,-186,6528,2,-1,?
2017-03-27 15:03:44.937000,636,6776,-57,1216,-850,352,-241,8008,1,1032,585,768,-529,6016,-338,6552,-6937,8,-372,752,244,8128,-105,4672,58,5104,-130,6528,2,-1,?
2017-03-27 15:03:44.945000,646,6776,-65,1216,-845,352,-229,8008,21,1032,624,768,-504,6016,-316,6552,-6937,8,-328,752,290,8128,-48,4672,89,5104,-119,6528,2,-1,?
2017-03-27 15:03:44.954000,619,6776,-64,1216,-858,352,-235,8008,46,1032,640,768,-518,6016,-365,6552,-6937,8,-376,752,279,8128,-63,4672,70,5104,-143,6528,2,-1,?
2017-03-27 15:03:44.961000,652,6776,-55,1216,-803,352,-217,8008,86,1032,693,768,-491,6016,-330,6536,-6937,8,-363,752,309,8128,-61,4672,78,5104,-109,6528,2,-2,?
2017-03-27 15:03:44.969000,685,6776,-54,1216,-768,352,-209,8008,48,1032,709,768,-461,6016,-285,6536,-6937,8,-305,752,358,8128,-13,4672,101,5104,-77,6528,2,-3,?
2017-03-27 15:03:44.976000,656,6776,-57,1216,-788,352,-217,8008,9,1032,692,768,-492,6016,-341,6536,-6937,8,-306,736,354,8128,5,4672,97,5104,-107,6528,2,-3,?
2017-03-27 15:03:44.984000,644,6776,-66,1216,-785,352,-265,8008,43,1032,722,768,-504,6016,-375,6536,-6937,8,-323,736,343,8144,-2,4672,97,5104,-135,6528,2,-4,?
2017-03-27 15:03:44.992000,683,6776,-54,1216,-743,352,-288,8008,69,1032,769,768,-455,6016,-297,6536,-6937,8,-303,736,373,8144,11,4712,123,5104,-105,6528,3,-4,?
2017-03-27 15:03:45.001000,692,6776,-53,1216,-731,352,-256,8008,94,1032,784,768,-437,6016,-228,6536,-6937,8,-278,736,392,8144,39,4712,130,5088,-88,6528,3,-4,?
2017-03-27 15:03:45.007000,647,6776,-66,1216,-759,352,-285,8008,108,1032,772,768,-471,6016,-272,6536,-6937,8,-289,736,360,8144,33,4712,98,5088,-125,6528,3,-3,?
2017-03-27 15:03:45.016000,646,6776,-57,1216,-752,352,-291,8008,50,1032,778,768,-479,6016,-302,6536,-6937,8,-290,736,350,8144,13,4712,87,5088,-136,6528,4,-3,?
2017-03-27 15:03:45.023000,695,6776,-56,1216,-703,352,-235,8008,37,1032,833,768,-459,6016,-290,6536,-6937,8,-240,736,402,8144,38,4712,116,5088,-94,6528,4,-4,?
2017-03-27 15:03:45.032000,701,6776,-58,1216,-696,352,-230,8008,139,1032,887,768,-452,6016,-313,6536,-6937,8,-215,736,419,8144,65,4712,125,5088,-81,6528,4,-4,?
2017-03-27 15:03:45.040000,667,6776,-60,1216,-721,352,-249,8008,187,1032,894,768,-441,6016,-291,6536,-6937,8,-247,736,378,8144,37,4712,98,5088,-108,6528,5,-4,?
2017-03-27 15:03:45.047000,678,6776,-63,1216,-710,352,-250,8008,111,1032,857,768,-441,6016,-212,6536,-6937,8,-246,736,366,8144,21,4712,94,5088,-103,6528,5,-4,?
2017-03-27 15:03:45.055000,717,6776,-57,1216,-687,352,-248,8008,70,1032,825,768,-449,6016,-231,6536,-6937,8,-219,736,384,8144,61,4712,120,5088,-78,6528,5,-4,?
2017-03-27 15:03:45.062000,722,6776,-61,1216,-689,352,-251,8008,115,1032,839,768,-422,6016,-300,6536,-6937,8,-221,736,386,8144,87,4712,127,5088,-81,6528,5,-4,?
2017-03-27 15:03:45.071000,741,6776,-56,1216,-680,352,-239,8008,194,1032,896,768,-385,6016,-217,6536,-6937,8,-178,736,414,8144,102,4712,136,5088,-59,6528,4,-5,?
2017-03-27 15:03:45.078000,760,6776,-50,1216,-663,352,-218,8008,155,1032,904,768,-390,6016,-232,6536,-6937,8,-118,736,449,8144,119,4712,144,5088,-27,6528,4,-5,?
2017-03-27 15:03:45.086000,715,6776,-62,1216,-688,352,-237,8008,-45,1032,825,768,-429,6016,-437,6536,-6937,8,-156,736,413,8144,88,4712,104,5088,-55,6528,4,-5,?
2017-03-27 15:03:45.093000,706,6776,-57,1216,-702,352,-252,8008,-56,1032,809,768,-443,6016,-406,6536,-6937,8,-182,736,401,8144,89,4712,98,5088,-68,6528,4,-5,?
2017-03-27 15:03:45.101000,768,6776,-46,1216,-637,352,-196,8008,217,1032,921,768,-411,6016,-217,6536,-6937,8,-102,736,470,8144,155,4712,150,5088,-12,6528,4,-5,?
2017-03-27 15:03:45.108000,796,6776,-50,1216,-587,352,-150,8008,392,1032,1010,768,-366,6016,-198,6536,-6937,8,-55,736,501,8144,171,4712,162,5088,20,6528,4,-5,?
2017-03-27 15:03:45.116000,762,6776,-62,1216,-624,352,-177,8008,279,1032,963,768,-368,6016,-214,6536,-6937,8,-101,736,457,8144,120,4712,123,5088,-19,6528,4,-4,?
2017-03-27 15:03:45.125000,728,6776,-70,1216,-670,352,-191,8008,100,1032,870,768,-404,6016,-204,6536,-6937,8,-143,736,411,8144,82,4712,90,5088,-51,6528,4,-4,?
2017-03-27 15:03:45.132000,741,6776,-56,1216,-657,352,-166,8008,124,1032,877,768,-398,6016,-215,6536,-6937,8,-131,736,403,8144,83,4712,100,5088,-22,6528,4,-4,?
2017-03-27 15:03:45.140000,759,6776,-57,1216,-640,352,-169,8008,252,1032,927,768,-362,6016,-188,6536,-6937,8,-110,736,412,8144,85,4712,120,5088,6,6528,4,-5,?
2017-03-27 15:03:45.148000,751,6776,-61,1216,-653,352,-179,8008,230,1032,906,768,-353,6016,-299,6536,-6937,8,-105,736,412,8144,110,4712,125,5088,6,6528,3,-5,?
2017-03-27 15:03:45.156000,745,6776,-52,1216,-674,352,-177,8008,134,1032,853,768,-384,6016,-428,6536,-6937,8,-127,736,378,8144,122,4712,107,5088,4,6528,3,-5,?
2017-03-27 15:03:45.165000,745,6776,-57,1216,-693,352,-178,8008,153,1032,841,768,-410,6016,-232,6536,-6937,8,-161,736,337,8144,66,4712,80,5088,0,6528,3,-4,?
2017-03-27 15:03:45.172000,752,6776,-55,1216,-687,352,-156,8008,207,1032,840,768,-398,6016,-64,6536,-6937,8,-153,736,336,8144,40,4712,88,5088,15,6528,2,-4,?
2017-03-27 15:03:45.180000,773,6776,-51,1216,-653,352,-127,8008,263,1032,858,768,-360,6016,-167,6536,-6937,8,-119,736,359,8144,87,4712,110,5088,46,6528,2,-3,?
2017-03-27 15:03:45.188000,788,6776,-54,1216,-651,352,-130,8008,312,1032,897,768,-332,6016,-215,6536,-6937,8,-110,736,362,8144,119,4712,109,5088,55,6528,2,-2,?
2017-03-27 15:03:45.195000,761,6776,-55,1216,-705,352,-154,8008,254,1032,867,768,-349,6016,-188,6536,-6937,8,-135,736,324,8144,82,4712,78,5088,32,6528,1,-2,?
2017-03-27 15:03:45.204000,731,6776,-63,1216,-728,352,-164,8008,201,1032,812,768,-376,6016,-213,6536,-6937,8,-146,736,293,8144,68,4712,65,5088,11,6528,1,-1,?
2017-03-27 15:03:45.211000,737,6776,-54,1216,-709,352,-164,8008,201,1032,810,768,-375,6016,-223,6536,-6937,8,-153,736,288,8144,82,4712,82,5088,14,6528,1,0,?
2017-03-27 15:03:45.219000,765,6776,-42,1216,-692,352,-162,8008,182,1032,797,768,-352,6016,-213,6536,-6937,8,-152,736,300,8144,84,4712,97,5088,26,6528,1,1,?
2017-03-27 15:03:45.227000,789,6776,-50,1216,-664,352,-158,8008,222,1032,754,768,-354,6016,-207,6536,-6937,8,-127,736,318,8144,98,4712,99,5088,38,6528,1,2,?
2017-03-27 15:03:45.234000,770,6776,-51,1216,-652,352,-159,8008,277,1032,730,768,-395,6016,-212,6536,-6937,8,-143,736,293,8144,93,4712,85,5088,22,6528,1,2,?
2017-03-27 15:03:45.243000,756,6776,-50,1216,-636,352,-145,8008,246,1032,731,768,-400,6016,-238,6536,-6937,8,-156,736,273,8144,79,4712,77,5088,9,6528,1,3,?
2017-03-27 15:03:45.250000,803,6776,-44,1216,-590,352,-134,8008,207,1032,719,768,-361,6016,-225,6536,-6937,8,-114,736,306,8144,97,4712,95,5088,35,6528,1,3,?
2017-03-27 15:03:45.258000,816,6776,-44,1216,-580,352,-159,8008,209,1032,684,768,-357,6016,-177,6536,-6937,8,-100,736,321,8144,110,4712,117,5088,42,6528,1,3,?
2017-03-27 15:03:45.266000,763,6776,-57,1216,-628,352,-181,8008,206,1032,662,768,-408,6016,-186,6536,-6937,8,-158,736,268,8144,68,4712,128,5088,0,6528,1,3,?
2017-03-27 15:03:45.274000,768,6776,-53,1216,-647,352,-163,8008,221,1032,683,768,-420,6016,-211,6536,-6937,8,-176,736,244,8144,40,4712,158,5088,-2,6528,1,3,?
2017-03-27 15:03:45.282000,803,6776,-51,1216,-633,352,-158,8008,223,1032,688,768,-392,6016,-237,6536,-6937,8,-133,736,272,8144,65,4712,170,5088,25,6528,1,3,?
2017-03-27 15:03:45.289000,770,6776,-53,1216,-654,352,-182,8008,156,1032,630,768,-412,6016,-323,6536,-6937,8,-156,736,253,8144,74,4712,114,5088,7,6528,1,2,?
2017-03-27 15:03:45.297000,751,6776,-49,1216,-655,352,-178,8008,155,1032,607,768,-436,6016,-310,6536,-6937,8,-199,736,225,8144,22,4712,64,5088,-9,6528,1,2,?
2017-03-27 15:03:45.305000,784,6776,-55,1216,-625,352,-159,8008,256,1032,649,768,-415,6016,-179,6536,-6937,8,-161,736,266,8144,-5,4712,76,5088,23,6528,1,2,?
2017-03-27 15:03:45.312000,791,6776,-53,1216,-623,352,-164,8008,269,1032,659,768,-401,6016,-178,6536,-6937,8,-115,736,310,8144,274,4712,94,5088,51,6528,1,2,?
2017-03-27 15:03:45.321000,770,6776,-51,1216,-631,352,-164,8008,202,1032,657,768,-413,6016,-262,6536,-6937,8,-125,736,310,8144,739,4712,78,5088,45,6528,1,1,?
2017-03-27 15:03:45.328000,773,6776,-49,1216,-628,352,-148,8008,219,1032,702,768,-402,6016,-226,6536,-6937,8,-133,736,314,8144,891,4712,78,5088,46,6528,1,1,?
2017-03-27 15:03:45.336000,779,6776,-49,1216,-636,352,-143,8008,260,1032,729,768,-388,6016,-206,6536,-6937,8,-119,736,321,8144,746,4712,91,5088,45,6528,1,1,?
2017-03-27 15:03:45.344000,767,6776,-59,1216,-660,352,-149,8008,227,1032,706,768,-418,6016,-288,6536,-6937,8,-118,736,311,8144,677,4712,85,5088,20,6528,1,0,?
2017-03-27 15:03:45.351000,772,6776,-52,1216,-662,352,-143,8008,198,1032,685,768,-448,6016,-284,6536,-6937,8,-115,736,322,8144,676,4712,91,5088,22,6528,1,0,?
2017-03-27 15:03:45.359000,791,6776,-49,1216,-650,352,-163,8008,226,1032,694,768,-443,6016,-207,6536,-6937,8,-108,736,342,8144,620,4712,111,5088,48,6528,2,0,?
2017-03-27 15:03:45.368000,797,6776,-53,1216,-659,352,-201,8008,245,1032,712,768,-414,6016,-178,6536,-6937,8,-101,736,338,8144,598,4712,115,5088,51,6528,2,0,?
2017-03-27 15:03:45.375000,793,6776,-47,1216,-692,352,-193,8008,222,1032,727,768,-405,6016,-234,6536,-6937,8,-102,736,330,8144,585,4712,105,5088,40,6528,2,0,?
2017-03-27 15:03:45.383000,787,6776,-51,1216,-714,352,-223,8008,219,1032,745,768,-433,6016,-303,6536,-6937,8,-116,736,340,8144,558,4712,89,5088,40,6528,3,-1,?
2017-03-27 15:03:45.390000,788,6776,-48,1216,-722,352,-285,8008,261,1032,760,768,-443,6016,-255,6536,-6937,8,-110,736,355,8144,568,4712,95,5088,54,6528,3,-1,?
2017-03-27 15:03:45.399000,789,6768,-53,1216,-745,352,-293,8008,256,1032,762,768,-424,6016,-197,6536,-6937,8,-94,736,353,8144,563,4712,94,5088,54,6528,3,-1,?
2017-03-27 15:03:45.406000,777,6768,-60,1224,-766,352,-321,8008,203,1032,753,768,-436,6016,-252,6536,-6937,8,-110,736,337,8144,517,4712,69,5088,41,6528,3,-1,?
2017-03-27 15:03:45.414000,771,6768,-53,1224,-760,352,-338,8008,207,1032,757,768,-454,6016,-278,6536,-6937,8,-120,736,335,8144,498,4712,75,5088,49,6536,3,-1,?
2017-03-27 15:03:45.422000,780,6768,-56,1224,-751,360,-315,8008,244,1032,785,768,-422,6016,-216,6536,-6937,8,-86,736,357,8144,528,4712,103,5088,70,6536,4,-1,?
2017-03-27 15:03:45.430000,786,6768,-57,1224,-749,360,-309,4224,242,1032,808,768,-404,6016,-205,6536,-6937,8,-68,736,364,8144,532,4712,106,5088,75,6536,4,-1,?
2017-03-27 15:03:45.438000,784,6768,-58,1224,-744,360,-310,4224,259,1072,826,768,-414,6016,-232,6536,-6937,8,-73,736,355,8144,498,4712,91,5088,56,6536,4,-1,?
2017-03-27 15:03:45.446000,783,6768,-63,1224,-750,360,-314,4224,275,1072,835,792,-403,6016,-238,6536,-6937,8,-72,736,356,8144,505,4712,92,5088,46,6536,4,-2,?
2017-03-27 15:03:45.454000,769,6768,-56,1224,-781,360,-319,4224,225,1072,817,792,-407,6024,-255,6536,-6937,8,-84,736,344,8144,504,4712,93,5088,41,6536,4,-2,?
2017-03-27 15:03:45.461000,766,6768,-58,1224,-790,360,-317,4224,211,1072,813,792,-414,6024,-226,6568,-6937,8,-93,736,332,8144,465,4712,83,5088,24,6536,4,-2,?
2017-03-27 15:03:45.470000,793,6768,-60,1224,-764,360,-309,4224,268,1072,844,792,-398,6024,-179,6568,-6937,0,-66,736,353,8144,571,4712,91,5088,28,6536,4,-2,?
2017-03-27 15:03:45.477000,802,6768,-54,1224,-750,360,-310,4224,273,1072,840,792,-403,6024,-215,6568,-6937,0,-38,736,379,8144,816,4712,106,5088,45,6536,5,-3,?
2017-03-27 15:03:45.484000,798,6768,-54,1224,-756,360,-318,4224,239,1072,811,792,-405,6024,-236,6568,-6937,0,-27,736,388,8152,926,4712,113,5088,51,6536,5,-3,?
2017-03-27 15:03:45.492000,804,6768,-57,1224,-765,360,-323,4224,231,1072,823,792,-395,6024,-199,6568,-6937,0,-41,736,374,8152,855,4504,106,5088,36,6536,6,-3,?
2017-03-27 15:03:45.500000,810,6768,-69,1224,-778,360,-326,4224,213,1072,843,792,-428,6024,-203,6568,-6937,0,-53,736,362,8152,821,4504,98,5112,14,6536,6,-3,?
2017-03-27 15:03:45.507000,828,6768,-62,1224,-772,360,-315,4224,229,1072,858,792,-441,6024,-208,6568,-6937,0,-25,752,397,8152,856,4504,123,5112,31,6536,6,-4,?
2017-03-27 15:03:45.515000,836,6768,-51,1224,-749,360,-311,4224,274,1072,877,792,-400,6024,-173,6568,-6937,0,-6,752,428,8136,833,4504,140,5112,57,6536,6,-4,?
2017-03-27 15:03:45.522000,823,6768,-62,1224,-746,360,-316,4224,260,1072,881,792,-402,6024,-176,6568,-6937,0,-28,752,413,8136,789,4488,122,5112,48,6536,6,-4,?
2017-03-27 15:03:45.531000,824,6768,-57,1224,-757,360,-307,4224,241,1072,882,792,-434,6024,-207,6568,-6937,0,-32,752,402,8136,774,4488,114,5112,40,6536,6,-4,?
2017-03-27 15:03:45.539000,820,6768,-59,1224,-754,360,-294,4224,266,1072,891,792,-417,6024,-189,6568,-6937,0,-4,752,411,8136,759,4488,115,5112,38,6536,6,-3,?
2017-03-27 15:03:45.547000,817,6768,-61,1224,-737,360,-272,4224,279,1072,905,792,-369,6024,-156,6568,-6937,0,24,752,433,8136,755,4488,122,5112,37,6536,6,-3,?
2017-03-27 15:03:45.555000,850,6768,-44,1224,-722,360,-256,4224,278,1072,915,792,-334,6024,-171,6568,-6937,0,50,752,465,8136,770,4488,144,5112,50,6536,5,-3,?
2017-03-27 15:03:45.564000,868,6768,-49,1224,-715,360,-272,4224,299,1072,915,792,-321,6024,-173,6568,-6937,0,69,752,478,8136,780,4488,153,5112,57,6536,5,-2,?
2017-03-27 15:03:45.571000,868,6768,-56,1224,-709,360,-290,4224,321,1072,914,792,-315,6024,-129,6568,-6937,0,80,752,480,8136,792,4488,149,5112,56,6536,4,-2,?
2017-03-27 15:03:45.578000,873,6768,-56,1224,-706,360,-290,4224,337,1072,915,792,-310,6024,-108,6568,-6937,0,104,752,491,8136,809,4488,146,5112,48,6536,4,-2,?
2017-03-27 15:03:45.587000,852,6768,-59,1224,-734,360,-294,4224,312,1072,877,792,-320,6024,-145,6568,-6937,0,104,752,466,8136,777,4488,127,5112,10,6536,3,-1,?
2017-03-27 15:03:45.594000,826,6768,-53,1224,-756,360,-306,4224,263,1072,818,792,-330,6024,-173,6568,-6937,0,87,752,428,8136,737,4488,115,5112,-27,6536,3,-1,?
2017-03-27 15:03:45.603000,846,6768,-50,1224,-725,360,-262,4224,277,1072,789,792,-316,6024,-141,6568,-6937,0,111,752,444,8136,769,4488,128,5112,-26,6536,3,0,?
2017-03-27 15:03:45.610000,860,6768,-44,1224,-708,360,-172,4224,309,1072,749,792,-312,6024,-120,6568,-6937,0,145,752,457,8136,795,4488,132,5112,-27,6536,3,2,?
2017-03-27 15:03:45.617000,808,6768,-47,1224,-755,360,-60,4224,276,1072,698,792,-338,6024,-148,6568,-6937,0,131,752,411,8136,740,4488,112,5112,-69,6536,3,3,?
2017-03-27 15:03:45.626000,760,6768,-54,1224,-799,360,112,4224,216,1072,665,792,-373,6024,-195,6568,-6937,0,98,752,360,8136,677,4488,120,5112,-112,6536,3,4,?
2017-03-27 15:03:45.633000,766,6768,-50,1224,-805,360,158,4224,181,1072,619,792,-398,6024,-225,6568,-6937,0,90,752,341,8136,662,4488,165,5112,-120,6536,3,4,?
2017-03-27 15:03:45.642000,762,6768,-56,1224,-824,360,37,4224,167,1072,572,792,-413,6024,-238,6568,-6937,0,88,752,322,8136,641,4488,176,5112,-129,6536,3,5,?
2017-03-27 15:03:45.649000,720,6768,-62,1224,-878,360,-45,4224,132,1072,537,792,-439,6024,-271,6568,-6937,0,58,752,263,8136,587,4488,121,5112,-162,6536,3,5,?
2017-03-27 15:03:45.656000,683,6768,-68,1224,-932,360,-68,4224,68,1072,474,792,-470,6024,-307,6568,-6937,0,6,752,194,8136,494,4488,46,5112,-198,6536,3,5,?
2017-03-27 15:03:45.664000,672,6768,-67,1224,-947,360,-36,4224,29,1072,399,792,-481,6024,-334,6568,-6937,0,-22,752,161,8136,344,4488,15,5112,-218,6536,3,5,?
2017-03-27 15:03:45.672000,667,6768,-61,1224,-954,360,6,4224,3,1072,348,792,-479,6024,-365,6568,-6937,0,-27,752,133,8136,228,4488,17,5112,-225,6536,3,5,?
2017-03-27 15:03:45.679000,652,6768,-73,1224,-987,360,-9,4224,-35,1072,316,792,-487,6024,-375,6568,-6937,0,-37,752,94,8136,207,4488,6,5112,-242,6536,3,5,?
2017-03-27 15:03:45.688000,641,6768,-66,1224,-1008,360,-52,4224,-35,1072,314,792,-508,6024,-374,6568,-6937,0,-47,752,80,8136,217,4488,-2,5112,-249,6536,3,4,?
2017-03-27 15:03:45.694000,656,6768,-55,1224,-989,360,-91,4224,-18,1072,336,792,-516,6024,-396,6568,-6937,0,-27,752,101,8136,229,4488,28,5112,-235,6536,3,4,?
2017-03-27 15:03:45.704000,690,6768,-66,1224,-960,360,-62,4224,-20,1072,357,792,-504,6024,-390,6568,-6937,0,25,752,144,8136,267,4488,63,5112,-215,6536,3,4,?
2017-03-27 15:03:45.711000,719,6768,-57,1224,-954,360,13,4224,-7,1072,386,792,-496,6024,-346,6568,-6937,0,65,752,183,8136,295,4488,78,5112,-199,6536,3,4,?
2017-03-27 15:03:45.720000,723,6768,-51,1224,-951,360,73,4224,24,1072,428,792,-500,6024,-342,6568,-6937,0,71,752,191,8136,289,4488,84,5112,-199,6536,3,3,?
2017-03-27 15:03:45.727000,719,6768,-58,1224,-924,360,119,4224,40,1072,467,792,-487,6024,-359,6568,-6937,0,79,752,197,8136,294,4488,93,5112,-191,6536,3,3,?
2017-03-27 15:03:45.735000,740,6768,-54,1224,-891,360,125,4224,66,1072,509,792,-451,6024,-335,6568,-6937,0,130,752,244,8136,323,4488,119,5112,-158,6536,3,2,?
2017-03-27 15:03:45.741000,767,6768,-56,1224,-899,360,92,4224,106,1072,551,792,-426,6024,-299,6568,-6937,0,191,752,294,8136,345,4488,137,5112,-133,6536,3,1,?
2017-03-27 15:03:45.750000,759,6768,-55,1224,-957,360,89,4224,88,1072,575,792,-443,6024,-323,6568,-6937,0,193,752,291,8136,341,4488,124,5112,-141,6536,3,1,?
2017-03-27 15:03:45.758000,732,6768,-57,1224,-1013,360,133,4224,66,1072,597,792,-469,6024,-367,6568,-6937,0,176,752,278,8136,331,4488,113,5112,-158,6536,3,0,?
2017-03-27 15:03:45.778000,730,6768,-58,1224,-1060,360,159,4224,82,1072,624,792,-466,6024,-358,6568,-6937,0,182,752,289,8136,322,4488,125,5112,-160,6536,3,0,?
2017-03-27 15:03:45.780000,730,6768,-53,1224,-1113,360,140,4224,78,1072,640,792,-458,6024,-326,6568,-6937,0,189,752,295,8136,309,4488,131,5112,-162,6536,3,0,?
2017-03-27 15:03:45.782000,708,6768,-60,1224,-1162,360,124,4224,83,1072,663,792,-470,6024,-314,6568,-6937,0,190,752,291,8136,304,4488,117,5112,-178,6536,4,0,?
2017-03-27 15:03:45.789000,691,6768,-58,1224,-1205,360,104,4224,115,1072,693,792,-478,6024,-325,6568,-6937,0,181,752,287,8136,288,4488,107,5112,-194,6536,4,-1,?
2017-03-27 15:03:45.797000,684,6768,-59,1224,-1245,360,68,4224,96,1072,698,792,-483,6024,-360,6568,-6937,0,160,752,275,8136,247,4488,97,5112,-207,6536,4,-1,?
2017-03-27 15:03:45.806000,676,6768,-63,1224,-1272,360,73,4224,53,1072,703,792,-481,6024,-377,6568,-6937,0,160,752,267,8136,237,4488,97,5112,-209,6536,4,-1,?
2017-03-27 15:03:45.813000,699,6768,-48,1224,-1264,360,113,4224,89,1072,759,792,-439,6024,-340,6568,-6937,0,210,752,307,8136,289,4488,136,5112,-183,6536,4,-1,?
2017-03-27 15:03:45.822000,732,6768,-45,1224,-1244,360,119,4224,148,1072,822,792,-400,6024,-300,6568,-6937,0,259,752,359,8136,329,4488,169,5112,-151,6536,4,-1,?
2017-03-27 15:03:45.828000,733,6768,-56,1224,-1250,360,103,4224,160,1072,835,792,-411,6024,-291,6568,-6937,0,265,752,362,8136,327,4488,162,5112,-148,6536,4,-1,?
2017-03-27 15:03:45.837000,720,6768,-66,1224,-1266,360,116,4224,159,1072,830,792,-426,6024,-281,6568,-6937,0,261,752,347,8136,326,4488,151,5112,-167,6536,4,-1,?
2017-03-27 15:03:45.844000,730,6768,-63,1224,-1258,360,151,4224,153,1072,835,792,-406,6024,-272,6568,-6937,0,283,752,365,8136,345,4488,167,5112,-161,6536,4,-1,?
2017-03-27 15:03:45.853000,756,6768,-49,1224,-1232,360,151,4224,176,1072,849,792,-384,6024,-262,6568,-6937,0,318,752,398,8136,363,4488,184,5112,-129,6536,4,-1,?
2017-03-27 15:03:45.859000,757,6768,-59,1224,-1231,360,138,4224,222,1072,863,792,-382,6024,-254,6568,-6937,0,335,752,397,8136,371,4488,172,5112,-127,6536,4,-1,?
2017-03-27 15:03:45.868000,748,6768,-63,1224,-1253,360,149,4224,237,1072,882,792,-375,6024,-254,6568,-6937,0,338,752,388,8136,372,4488,170,5112,-141,6536,4,-1,?
2017-03-27 15:03:45.875000,760,6768,-54,1224,-1259,360,149,4224,230,1072,906,792,-353,6024,-244,6568,-6937,0,347,752,406,8136,374,4488,189,5112,-141,6536,4,-1,?
2017-03-27 15:03:45.883000,766,6768,-57,1224,-1251,360,128,4224,226,1072,914,792,-345,6024,-241,6568,-6937,0,351,752,421,8136,371,4488,186,5112,-136,6536,4,-1,?
2017-03-27 15:03:45.891000,760,6768,-53,1224,-1263,360,123,4224,204,1072,899,792,-356,6024,-257,6568,-6937,0,347,752,406,8136,360,4488,179,5112,-137,6536,4,-1,?
2017-03-27 15:03:45.900000,769,6768,-57,1224,-1285,360,132,4224,197,1072,888,792,-358,6024,-252,6568,-6937,0,365,752,409,8136,355,4488,189,5112,-134,6536,3,-1,?
2017-03-27 15:03:45.907000,785,6776,-59,1224,-1281,360,122,4224,232,1072,907,792,-345,6024,-240,6568,-6937,0,394,752,438,8136,366,4488,201,5112,-125,6536,3,-1,?
2017-03-27 15:03:45.915000,787,6776,-54,1200,-1270,360,117,4224,249,1072,922,792,-341,6024,-251,6568,-6937,0,398,752,443,8136,373,4488,202,5112,-127,6536,3,0,?
2017-03-27 15:03:45.922000,798,6776,-59,1200,-1272,360,136,4224,241,1072,906,792,-334,6024,-235,6568,-6937,0,400,752,446,8136,380,4488,208,5112,-122,6544,2,0,?
2017-03-27 15:03:45.930000,809,6776,-57,1200,-1294,368,138,4224,233,1072,890,792,-320,6024,-202,6568,-6937,0,409,752,458,8136,383,4488,220,5112,-114,6544,2,0,?
2017-03-27 15:03:45.939000,788,6776,-63,1200,-1324,368,119,5400,226,1072,915,792,-317,6024,-203,6568,-6937,0,410,752,451,8136,364,4488,210,5112,-134,6544,2,-1,?
2017-03-27 15:03:45.946000,783,6776,-63,1200,-1318,368,132,5400,240,1072,934,792,-314,6024,-204,6568,-6937,0,421,752,449,8136,358,4488,215,5112,-135,6544,1,-1,?
2017-03-27 15:03:45.954000,816,6776,-46,1200,-1290,368,163,5400,271,1072,908,768,-295,6024,-173,6568,-6937,0,445,752,471,8136,381,4488,250,5112,-104,6544,1,0,?
2017-03-27 15:03:45.962000,830,6776,-52,1200,-1291,368,159,5400,285,1072,891,768,-278,6040,-157,6568,-6937,0,455,752,485,8136,394,4488,263,5112,-102,6544,0,0,?
2017-03-27 15:03:45.971000,817,6776,-57,1200,-1313,368,133,5400,274,1072,893,768,-292,6040,-186,6568,-6937,0,445,752,489,8136,386,4488,255,5112,-110,6544,-1,0,?
2017-03-27 15:03:45.980000,804,6776,-58,1200,-1331,368,137,5400,248,1072,875,768,-310,6040,-213,6568,-6937,24,439,752,485,8136,373,4488,242,5112,-112,6544,-1,0,?
2017-03-27 15:03:45.986000,816,6776,-59,1200,-1334,368,155,5400,243,1072,859,768,-293,6040,-192,6568,-6937,24,451,760,485,8136,383,4488,238,5112,-114,6544,-1,0,?
2017-03-27 15:03:45.994000,833,6776,-49,1200,-1326,368,147,5400,268,1072,861,768,-276,6040,-158,6568,-6937,24,457,760,492,8136,408,4488,240,5112,-116,6544,-1,0,?
2017-03-27 15:03:46.001000,812,6776,-57,1200,-1340,368,138,5400,250,1072,842,768,-286,6040,-162,6568,-6937,24,437,760,486,8136,391,4496,227,5112,-134,6544,-2,0,?
2017-03-27 15:03:46.008000,779,6776,-59,1200,-1365,368,164,5400,215,1072,821,768,-292,6040,-190,6568,-6937,24,410,760,461,8136,391,4496,206,5064,-156,6544,-2,0,?
2017-03-27 15:03:46.016000,775,6776,-48,1200,-1363,368,173,5400,256,1072,814,768,-281,6040,-193,6568,-6937,24,406,752,452,8136,456,4496,198,5064,-164,6544,-2,0,?
2017-03-27 15:03:46.025000,782,6776,-49,1200,-1348,368,160,5400,297,1072,816,768,-267,6040,-174,6568,-6937,24,425,752,464,8128,461,4496,206,5064,-159,6544,-1,0,?
2017-03-27 15:03:46.032000,793,6776,-47,1200,-1351,368,188,5400,264,1072,835,768,-255,6040,-155,6568,-6937,24,441,752,474,8128,382,4496,221,5064,-139,6544,-1,1,?
2017-03-27 15:03:46.041000,796,6776,-53,1200,-1366,368,184,5400,238,1072,827,768,-267,6040,-157,6568,-6937,24,428,752,467,8128,356,4496,222,5064,-133,6544,0,1,?
2017-03-27 15:03:46.047000,763,6776,-57,1200,-1398,368,123,5400,250,1072,754,768,-303,6040,-188,6568,-6937,24,395,752,433,8128,372,4496,205,5064,-158,6544,0,1,?
2017-03-27 15:03:46.056000,747,6776,-53,1200,-1409,368,135,5400,253,1072,707,768,-301,6040,-196,6568,-6937,24,386,752,409,8128,355,4496,207,5064,-169,6544,1,1,?
2017-03-27 15:03:46.062000,792,6776,-50,1200,-1369,368,171,5400,256,1072,738,768,-257,6040,-165,6568,-6937,24,399,752,427,8128,355,4496,232,5064,-137,6544,1,1,?
2017-03-27 15:03:46.071000,811,6776,-49,1200,-1349,368,140,5400,257,1072,757,768,-239,6040,-152,6568,-6937,24,387,752,428,8128,364,4496,235,5064,-117,6544,2,1,?
2017-03-27 15:03:46.078000,765,6776,-63,1200,-1385,368,130,5400,226,1072,724,768,-271,6040,-169,6568,-6937,24,360,752,385,8128,336,4496,208,5064,-142,6544,3,0,?
2017-03-27 15:03:46.087000,735,6776,-63,1200,-1435,368,107,5400,177,1072,672,768,-312,6040,-205,6568,-6937,24,329,752,343,8128,306,4496,193,5064,-167,6544,4,0,?
2017-03-27 15:03:46.093000,733,6776,-57,1200,-1469,368,38,5400,107,1072,629,768,-338,6040,-274,6568,-6937,24,284,752,310,8128,284,4496,187,5064,-187,6544,5,-1,?
2017-03-27 15:03:46.102000,739,6776,-60,1200,-1477,368,24,5400,50,1072,616,768,-366,6040,-304,6568,-6937,24,253,752,282,8128,251,4496,166,5064,-214,6544,5,-1,?
2017-03-27 15:03:46.110000,745,6776,-55,1200,-1481,368,16,5400,60,1072,611,768,-396,6040,-296,6568,-6937,24,245,752,269,8128,219,4496,163,5064,-229,6544,6,-1,?
2017-03-27 15:03:46.118000,729,6776,-61,1200,-1502,368,-62,5400,89,1072,601,768,-415,6040,-321,6568,-6937,24,233,752,264,8128,205,4496,169,5064,-223,6544,6,-1,?
2017-03-27 15:03:46.125000,701,6776,-63,1200,-1524,368,-103,5400,28,1072,609,768,-444,6040,-353,6568,-6937,24,202,752,248,8128,172,4496,158,5064,-207,6544,6,-1,?
2017-03-27 15:03:46.132000,695,6776,-54,1200,-1511,368,-80,5400,15,1072,658,768,-458,6040,-330,6568,-6937,24,200,752,245,8128,137,4496,158,5064,-183,6544,6,-1,?
2017-03-27 15:03:46.141000,707,6776,-56,1200,-1476,368,-77,5400,177,1072,722,768,-422,6040,-296,6568,-6937,24,240,752,278,8128,161,4496,188,5064,-158,6544,6,-1,?
2017-03-27 15:03:46.149000,710,6776,-59,1200,-1465,368,-84,5400,282,1072,764,768,-385,6040,-303,6568,-6937,24,252,752,298,8128,190,4496,210,5064,-142,6544,6,-2,?
2017-03-27 15:03:46.157000,712,6776,-65,1200,-1468,368,-59,5400,216,1072,758,768,-385,6040,-310,6568,-6937,24,238,752,292,8128,189,4496,210,5064,-140,6544,6,-2,?
2017-03-27 15:03:46.165000,727,6776,-60,1200,-1457,368,-27,5400,146,1072,725,768,-381,6040,-297,6568,-6937,24,242,752,294,8128,206,4496,215,5064,-133,6544,6,-2,?
2017-03-27 15:03:46.175000,742,6776,-54,1200,-1440,368,-21,5400,165,1072,722,768,-363,6040,-284,6568,-6937,24,252,752,313,8128,241,4496,239,5064,-114,6544,6,-3,?
2017-03-27 15:03:46.180000,737,6776,-66,1200,-1433,368,-38,5400,219,1072,749,768,-365,6040,-280,6568,-6937,24,265,752,334,8128,259,4496,288,5064,-90,6544,6,-3,?
2017-03-27 15:03:46.189000,746,6776,-59,1200,-1424,368,-31,5400,259,1072,772,768,-367,6040,-269,6568,-6937,24,296,752,344,8128,266,4496,347,5064,-65,6544,6,-3,?
2017-03-27 15:03:46.196000,768,6776,-45,1200,-1405,368,3,5400,251,1072,796,768,-344,6040,-229,6568,-6937,24,315,752,353,8128,271,4496,367,5064,-45,6544,6,-3,?
2017-03-27 15:03:46.205000,764,6776,-53,1200,-1404,368,13,5400,222,1072,813,768,-321,6040,-217,6568,-6937,24,308,752,363,8128,271,4496,350,5064,-32,6544,6,-3,?
2017-03-27 15:03:46.212000,752,6776,-59,1200,-1416,368,-11,5400,238,1072,798,768,-323,6040,-252,6568,-6937,24,309,752,371,8128,276,4496,343,5064,-28,6544,6,-3,?
2017-03-27 15:03:46.220000,748,6776,-64,1200,-1423,368,-15,5400,242,1072,774,768,-335,6040,-269,6568,-6937,24,313,752,373,8128,286,4496,338,5064,-37,6544,6,-2,?
2017-03-27 15:03:46.227000,765,6776,-55,1200,-1419,368,3,5400,231,1072,789,768,-328,6040,-237,6568,-6937,24,329,752,385,8128,305,4496,322,5064,-22,6544,6,-2,?
2017-03-27 15:03:46.236000,795,6776,-47,1200,-1404,368,0,5400,256,1072,816,768,-307,6040,-208,6568,-6937,24,353,752,414,8128,316,4496,306,5064,13,6544,6,-2,?
2017-03-27 15:03:46.243000,799,6776,-56,1200,-1400,368,-14,5400,288,1072,819,768,-303,6040,-216,6568,-6937,24,352,752,422,8128,305,4496,291,5064,34,6544,5,-2,?
2017-03-27 15:03:46.253000,782,6776,-63,1200,-1413,368,-22,5400,267,1072,814,768,-310,6040,-231,6568,-6937,24,332,752,405,8128,296,4496,286,5064,34,6544,5,-2,?
2017-03-27 15:03:46.258000,787,6776,-66,1200,-1408,368,-14,5400,250,1072,824,768,-303,6040,-221,6568,-6937,24,347,752,413,8128,298,4496,293,5064,42,6544,5,-2,?
2017-03-27 15:03:46.266000,808,6776,-58,1200,-1391,368,1,5400,266,1072,830,768,-296,6040,-203,6568,-6937,24,374,752,436,8128,308,4496,303,5064,66,6544,5,-2,?
2017-03-27 15:03:46.274000,789,6776,-56,1200,-1417,368,-11,5400,242,1072,811,768,-305,6040,-223,6568,-6937,24,363,752,422,8128,309,4496,295,5064,57,6544,4,-2,?
2017-03-27 15:03:46.283000,773,6776,-64,1200,-1448,368,-28,5400,248,1072,816,768,-300,6040,-234,6568,-6937,24,358,752,416,8128,312,4496,292,5064,46,6544,4,-2,?
2017-03-27 15:03:46.290000,791,6776,-60,1200,-1455,368,-28,5400,320,1072,850,768,-281,6040,-194,6568,-6937,24,379,752,443,8128,329,4496,312,5064,67,6544,4,-1,?
2017-03-27 15:03:46.298000,791,6776,-64,1200,-1473,368,-21,5400,335,1072,864,768,-283,6040,-182,6568,-6937,24,375,752,437,8128,326,4496,317,5064,61,6544,4,-1,?
2017-03-27 15:03:46.305000,787,6776,-61,1200,-1483,368,-17,5400,291,1072,843,768,-283,6040,-211,6568,-6937,24,360,752,420,8128,315,4496,318,5064,46,6544,3,-1,?
2017-03-27 15:03:46.313000,800,6776,-56,1200,-1475,368,-20,5400,287,1072,823,768,-272,6040,-215,6568,-6937,24,373,752,439,8128,317,4496,327,5064,60,6544,3,-1,?
2017-03-27 15:03:46.321000,787,6776,-69,1200,-1497,368,-30,5400,281,1072,812,768,-285,6040,-215,6568,-6937,24,383,752,441,8128,308,4496,312,5064,54,6544,3,-1,?
2017-03-27 15:03:46.329000,768,6776,-59,1200,-1535,368,-24,5400,252,1072,806,768,-311,6040,-230,6568,-6937,24,368,752,421,8128,274,4496,292,5064,34,6544,3,-1,?
2017-03-27 15:03:46.337000,789,6776,-54,1200,-1557,368,-12,5400,274,1072,816,768,-307,6040,-225,6568,-6937,24,372,752,437,8128,275,4496,296,5064,52,6544,2,-2,?
2017-03-27 15:03:46.345000,793,6776,-66,1200,-1597,368,-17,5400,298,1072,818,768,-285,6040,-215,6568,-6937,24,391,752,465,8128,299,4496,305,5064,71,6544,2,-2,?
2017-03-27 15:03:46.353000,793,6776,-63,1200,-1620,368,-24,5400,292,1072,818,768,-261,6040,-199,6568,-6937,24,409,752,469,8128,299,4496,312,5064,68,6544,2,-2,?
2017-03-27 15:03:46.360000,848,6776,-60,1200,-1602,368,-33,5400,285,1072,820,768,-250,6040,-165,6568,-6937,24,429,752,467,8128,381,4496,311,5064,67,6544,1,-2,?
2017-03-27 15:03:46.368000,878,6776,-57,1200,-1606,368,-39,5400,272,1072,791,768,-262,6040,-169,6568,-6937,24,428,752,465,8128,566,4496,305,5064,73,6544,1,-3,?
2017-03-27 15:03:46.376000,834,6776,-54,1200,-1624,368,-41,5400,270,1072,763,768,-264,6040,-200,6568,-6937,24,417,752,463,8128,666,4496,312,5064,76,6544,1,-3,?
2017-03-27 15:03:46.384000,789,6776,-56,1200,-1622,368,-47,5400,278,1072,773,768,-266,6040,-212,6568,-6937,24,413,752,458,8128,614,4496,319,5064,68,6544,1,-3,?
2017-03-27 15:03:46.391000,781,6776,-49,1200,-1658,368,-50,5400,292,1072,792,768,-289,6040,-211,6568,-6937,24,395,752,437,8128,561,4496,310,5064,51,6544,0,-3,?
2017-03-27 15:03:46.399000,782,6776,-55,1200,-1719,368,-51,5400,301,1072,787,768,-302,6040,-205,6568,-6937,24,386,752,432,8128,581,4496,303,5064,48,6544,0,-2,?
2017-03-27 15:03:46.407000,788,6776,-54,1200,-1727,368,-46,5400,274,1072,783,768,-284,6040,-191,6568,-6937,24,403,752,456,8128,581,4496,319,5064,68,6544,-1,-2,?
2017-03-27 15:03:46.415000,802,6776,-45,1176,-1697,368,-29,5400,261,1072,811,768,-249,6040,-167,6568,-6937,24,416,752,475,8128,560,4496,343,5064,85,6544,-1,-1,?
2017-03-27 15:03:46.424000,801,6776,-49,1176,-1695,368,-38,5400,302,1072,823,768,-239,6040,-172,6568,-6937,24,398,752,463,8128,560,4496,337,5064,78,6552,-1,-1,?
2017-03-27 15:03:46.430000,779,6776,-51,1176,-1713,360,-63,5400,318,1072,785,768,-274,6040,-216,6568,-6937,24,368,752,434,8128,506,4496,313,5064,49,6552,-2,0,?
2017-03-27 15:03:46.438000,757,6776,-62,1176,-1704,360,-60,112,301,1072,750,768,-291,6040,-224,6568,-6937,24,357,752,425,8128,357,4496,312,5064,22,6552,-2,1,?
2017-03-27 15:03:46.446000,763,6776,-58,1176,-1679,360,-51,112,309,1072,746,768,-278,6040,-193,6568,-6937,24,359,752,424,8128,256,4496,326,5064,27,6552,-2,1,?
2017-03-27 15:03:46.454000,770,6776,-50,1176,-1662,360,-60,112,318,1072,734,784,-280,6040,-200,6568,-6937,24,352,752,405,8128,264,4496,319,5064,28,6552,-2,2,?
2017-03-27 15:03:46.462000,771,6776,-59,1176,-1643,360,-47,112,289,1072,695,784,-282,6040,-208,6568,-6937,24,344,752,394,8128,269,4496,315,5064,14,6552,-2,3,?
2017-03-27 15:03:46.471000,791,6776,-53,1176,-1617,360,-17,112,272,1072,646,784,-256,6040,-170,6576,-6937,24,357,752,404,8128,255,4496,341,5064,27,6552,-1,3,?
2017-03-27 15:03:46.477000,798,6776,-52,1176,-1607,360,-4,112,283,1072,604,784,-240,6040,-163,6576,-6937,0,354,752,395,8128,259,4496,346,5064,45,6552,0,5,?
2017-03-27 15:03:46.486000,787,6776,-56,1176,-1614,360,-23,112,284,1072,584,784,-246,6040,-200,6576,-6937,0,325,736,370,8128,256,4496,326,5064,52,6552,0,5,?
2017-03-27 15:03:46.493000,790,6776,-53,1176,-1616,360,-64,112,290,1072,589,784,-254,6040,-197,6576,-6937,0,309,736,364,8136,239,4496,311,5064,61,6552,1,4,?
2017-03-27 15:03:46.502000,800,6776,-50,1176,-1600,360,-50,112,317,1072,594,784,-256,6040,-168,6576,-6937,0,310,736,371,8136,230,4496,314,5064,74,6552,1,4,?
2017-03-27 15:03:46.509000,822,6776,-41,1176,-1573,360,-1,112,321,1072,595,784,-256,6040,-185,6576,-6937,0,309,736,375,8136,230,4496,344,5080,104,6552,2,3,?
2017-03-27 15:03:46.517000,824,6776,-47,1176,-1562,360,-23,112,286,1072,586,784,-274,6040,-215,6576,-6937,0,299,752,369,8136,219,4496,373,5080,117,6552,2,2,?
2017-03-27 15:03:46.524000,805,6776,-54,1176,-1578,360,-74,112,270,1072,562,784,-289,6040,-190,6576,-6937,0,294,752,359,8144,207,4496,375,5080,109,6552,3,2,?
2017-03-27 15:03:46.532000,819,6776,-47,1176,-1590,360,-76,112,290,1072,549,784,-284,6040,-152,6576,-6937,0,294,752,362,8144,215,4488,387,5080,118,6552,3,1,?
2017-03-27 15:03:46.540000,852,6776,-50,1176,-1572,360,-71,112,310,1072,574,784,-284,6040,-161,6576,-6937,0,303,752,380,8144,242,4488,420,5080,145,6552,3,1,?
2017-03-27 15:03:46.548000,843,6776,-47,1176,-1559,360,-95,112,304,1072,621,784,-297,6040,-197,6576,-6937,0,308,752,390,8144,263,4488,426,5080,163,6552,3,1,?
2017-03-27 15:03:46.556000,803,6776,-50,1176,-1579,360,-111,112,269,1072,651,784,-301,6040,-222,6576,-6937,0,295,752,385,8144,254,4488,406,5080,151,6552,3,0,?
2017-03-27 15:03:46.562000,794,6776,-55,1176,-1580,360,-109,112,280,1072,687,784,-287,6040,-226,6576,-6937,0,284,752,394,8144,249,4488,432,5080,151,6552,3,-1,?
2017-03-27 15:03:46.571000,807,6776,-48,1176,-1552,360,-107,112,303,1072,722,784,-274,6040,-220,6576,-6937,0,292,752,421,8144,273,4488,476,5080,167,6552,4,-1,?
2017-03-27 15:03:46.578000,798,6776,-54,1176,-1538,360,-105,112,266,1072,722,784,-279,6040,-217,6576,-6937,0,303,752,428,8144,287,4488,479,5080,150,6552,3,-2,?
2017-03-27 15:03:46.587000,794,6776,-54,1176,-1527,360,-102,112,253,1072,731,784,-280,6040,-205,6576,-6937,0,305,752,421,8144,271,4488,490,5080,132,6552,3,-2,?
2017-03-27 15:03:46.596000,810,6776,-47,1176,-1499,360,-96,112,304,1072,761,784,-251,6040,-186,6576,-6937,0,309,752,428,8144,260,4488,513,5080,140,6552,3,-3,?
2017-03-27 15:03:46.604000,811,6776,-49,1176,-1488,360,-96,112,309,1072,764,784,-248,6040,-205,6576,-6937,0,303,752,430,8144,261,4488,511,5080,142,6552,4,-3,?
2017-03-27 15:03:46.611000,809,6776,-49,1176,-1488,360,-103,112,270,1072,756,784,-281,6040,-238,6576,-6937,0,293,752,429,8144,262,4488,516,5080,143,6552,3,-3,?
2017-03-27 15:03:46.622000,821,6776,-54,1176,-1457,360,-97,112,305,1072,791,784,-279,6040,-213,6576,-6937,0,307,752,455,8144,278,4488,540,5080,162,6552,4,-3,?
2017-03-27 15:03:46.626000,807,6776,-53,1176,-1432,360,-87,112,348,1072,827,784,-252,6040,-186,6576,-6937,0,315,752,473,8144,289,4488,544,5080,171,6552,4,-3,?
2017-03-27 15:03:46.636000,774,6776,-51,1176,-1442,360,-88,112,304,1072,831,784,-266,6040,-213,6576,-6937,0,302,752,465,8144,269,4488,533,5080,156,6552,4,-3,?
2017-03-27 15:03:46.642000,769,6776,-53,1176,-1451,360,-92,112,296,1072,846,784,-282,6040,-221,6576,-6937,0,298,752,463,8144,254,4488,538,5080,156,6552,4,-2,?
2017-03-27 15:03:46.650000,780,6776,-47,1176,-1441,360,-91,112,369,1072,876,784,-259,6040,-187,6576,-6937,0,305,752,472,8144,258,4488,544,5080,173,6552,4,-2,?
2017-03-27 15:03:46.657000,774,6776,-60,1176,-1427,360,-91,112,380,1072,879,784,-237,6040,-161,6576,-6937,0,319,752,477,8144,269,4488,544,5080,168,6552,4,-2,?
2017-03-27 15:03:46.666000,773,6776,-61,1176,-1418,360,-99,112,334,1072,866,784,-239,6040,-154,6576,-6937,0,326,752,476,8144,282,4488,580,5080,168,6552,3,-2,?
2017-03-27 15:03:46.673000,775,6776,-49,1176,-1414,360,-105,112,336,1072,870,784,-248,6040,-158,6576,-6937,0,300,752,471,8144,265,4488,612,5080,184,6552,3,-2,?
2017-03-27 15:03:46.682000,768,6776,-57,1176,-1405,360,-100,112,333,1072,863,784,-254,6040,-191,6576,-6937,0,275,752,466,8144,232,4488,600,5080,177,6552,3,-2,?
2017-03-27 15:03:46.689000,781,6776,-50,1176,-1390,360,-99,112,321,1072,848,784,-261,6040,-232,6576,-6937,0,290,752,472,8144,233,4488,599,5080,168,6552,3,-2,?
2017-03-27 15:03:46.697000,787,6776,-47,1176,-1381,360,-110,112,355,1072,863,784,-265,6040,-240,6576,-6937,0,299,752,472,8144,252,4488,596,5080,174,6552,3,-3,?
2017-03-27 15:03:46.704000,770,6776,-53,1176,-1390,360,-118,112,348,1072,854,784,-260,6040,-222,6576,-6937,0,279,752,459,8144,251,4488,555,5080,173,6552,2,-3,?
2017-03-27 15:03:46.713000,774,6776,-47,1176,-1387,360,-126,112,311,1072,808,784,-246,6040,-193,6576,-6937,0,285,752,463,8144,247,4488,533,5080,177,6552,2,-3,?
2017-03-27 15:03:46.720000,796,6776,-52,1176,-1357,360,-127,112,334,1072,810,784,-236,6040,-171,6576,-6937,0,310,752,491,8144,257,4488,547,5080,193,6552,1,-4,?
2017-03-27 15:03:46.729000,796,6776,-56,1176,-1346,360,-116,112,341,1072,849,784,-238,6040,-183,6576,-6937,0,301,752,496,8144,259,4488,547,5080,189,6552,1,-4,?
2017-03-27 15:03:46.736000,779,6776,-58,1176,-1367,360,-115,112,300,1072,844,784,-254,6040,-212,6576,-6937,0,283,752,481,8144,253,4488,532,5080,166,6552,0,-5,?
2017-03-27 15:03:46.743000,776,6776,-57,1176,-1364,360,-124,112,310,1072,847,784,-276,6040,-220,6576,-6937,0,295,752,473,8144,244,4488,531,5080,160,6552,0,-5,?
2017-03-27 15:03:46.752000,777,6776,-50,1176,-1343,360,-113,112,349,1072,882,784,-278,6040,-214,6576,-6937,0,302,752,476,8144,238,4488,529,5080,152,6552,-1,-6,?
2017-03-27 15:03:46.759000,764,6776,-54,1176,-1353,360,-88,112,331,1072,873,784,-254,6040,-205,6576,-6937,0,288,752,478,8144,233,4488,502,5080,124,6552,-2,-7,?
2017-03-27 15:03:46.766000,745,6776,-49,1176,-1376,360,-108,112,297,1072,835,784,-259,6040,-204,6576,-6937,0,270,752,464,8144,214,4488,477,5080,113,6552,-3,-7,?
2017-03-27 15:03:46.775000,749,6776,-46,1176,-1357,360,-128,112,321,1072,834,784,-275,6040,-203,6576,-6937,0,284,752,469,8144,211,4488,491,5080,131,6552,-3,-8,?
2017-03-27 15:03:46.782000,764,6776,-53,1176,-1321,360,-101,112,362,1072,843,784,-256,6040,-191,6576,-6937,0,304,752,501,8144,236,4488,511,5080,141,6552,-4,-9,?
2017-03-27 15:03:46.790000,756,6776,-52,1176,-1326,360,-78,112,358,1072,841,784,-247,6040,-196,6576,-6937,0,284,752,497,8144,237,4488,495,5080,119,6552,-6,-9,?
2017-03-27 15:03:46.798000,737,6776,-58,1176,-1339,360,-85,112,323,1072,847,784,-272,6040,-210,6576,-6937,0,258,752,466,8144,199,4488,467,5080,95,6552,-7,-9,?
2017-03-27 15:03:46.806000,740,6776,-56,1176,-1325,360,-85,112,306,1072,836,784,-278,6040,-217,6576,-6937,0,252,752,465,8144,185,4488,474,5080,97,6552,-8,-10,?
2017-03-27 15:03:46.814000,755,6776,-51,1176,-1318,360,-102,112,349,1072,832,784,-257,6040,-220,6576,-6937,0,267,752,488,8144,224,4488,491,5080,106,6552,-10,-9,?
2017-03-27 15:03:46.822000,759,6776,-55,1176,-1336,360,-125,112,363,1072,868,784,-239,6040,-197,6576,-6937,0,302,752,497,8144,260,4488,498,5080,99,6552,-11,-9,?
2017-03-27 15:03:46.829000,770,6776,-52,1176,-1350,360,-33,112,266,1072,864,784,-228,6040,-143,6576,-6937,0,354,752,515,8144,270,4488,518,5080,88,6552,-13,-9,?
2017-03-27 15:03:46.837000,801,6776,-54,1176,-1309,360,-125,112,277,1072,839,784,-205,6040,-98,6576,-6937,0,439,752,585,8144,305,4488,564,5080,118,6552,-14,-8,?
2017-03-27 15:03:46.845000,841,6776,-45,1176,-1254,360,-479,112,454,1072,881,784,-149,6040,-74,6576,-6937,0,543,752,674,8144,370,4488,610,5080,192,6552,-15,-7,?
2017-03-27 15:03:46.854000,862,6776,-45,1176,-1270,360,-486,112,489,1072,915,784,-111,6040,-77,6576,-6937,0,587,752,695,8144,390,4488,611,5080,209,6552,-16,-6,?
2017-03-27 15:03:46.862000,860,6776,-60,1176,-1319,360,-296,112,358,1072,861,784,-146,6040,-120,6576,-6937,0,591,752,664,8144,369,4488,580,5080,155,6552,-16,-6,?
2017-03-27 15:03:46.869000,842,6776,-57,1176,-1335,360,-395,112,298,1072,801,784,-179,6040,-182,6576,-6937,0,607,752,651,8144,356,4488,561,5080,148,6552,-16,-5,?
2017-03-27 15:03:46.877000,839,6776,-52,1176,-1339,360,-523,112,368,1072,814,784,-156,6040,-179,6576,-6937,0,611,752,669,8144,359,4488,569,5080,161,6552,-17,-4,?
2017-03-27 15:03:46.885000,896,6776,-46,1176,-1312,360,-379,112,431,1072,836,784,-139,6040,-101,6576,-6937,0,655,752,717,8144,380,4488,602,5080,198,6552,-17,-4,?
2017-03-27 15:03:46.892000,909,6776,-45,1176,-1301,360,-222,112,293,1072,779,784,-180,6040,-95,6576,-6937,0,685,752,704,8144,349,4488,578,5080,255,6552,-16,-4,?
2017-03-27 15:03:46.900000,861,6776,-53,1176,-1340,360,-299,112,189,1072,740,784,-188,6040,-124,6576,-6937,0,650,752,632,8144,366,4488,529,5080,266,6552,-16,-4,?
2017-03-27 15:03:46.909000,886,6776,-46,1176,-1343,360,-383,112,340,1072,787,784,-130,6040,-65,6576,-6937,0,656,752,631,8144,464,4488,559,5080,269,6552,-15,-5,?
2017-03-27 15:03:46.915000,913,6752,-50,1176,-1341,360,-357,112,337,1072,764,784,-129,6040,-70,6576,-6937,0,679,752,641,8144,423,4488,580,5080,273,6552,-14,-5,?
2017-03-27 15:03:46.923000,892,6752,-48,1176,-1355,360,-336,112,215,1072,723,784,-177,6040,-140,6576,-6937,0,666,752,611,8144,298,4488,552,5080,293,6552,-13,-6,?
2017-03-27 15:03:46.931000,916,6752,-33,1176,-1301,360,-336,112,351,1072,795,784,-193,6040,-125,6576,-6937,0,706,752,635,8144,326,4488,566,5080,350,6520,-13,-6,?
2017-03-27 15:03:46.940000,938,6752,-41,1176,-1264,376,-315,112,395,1072,823,784,-222,6040,-127,6576,-6937,0,745,752,661,8144,372,4488,577,5080,385,6520,-12,-6,?
2017-03-27 15:03:46.947000,903,6752,-44,1176,-1307,376,-304,5976,227,1072,795,784,-258,6040,-194,6576,-6937,0,714,752,623,8144,291,4488,544,5080,377,6520,-11,-6,?
2017-03-27 15:03:46.954000,882,6752,-43,1176,-1307,376,-291,5976,236,968,873,784,-225,6040,-195,6576,-6937,0,709,752,601,8144,249,4488,528,5080,374,6520,-10,-6,?
2017-03-27 15:03:46.962000,889,6752,-46,1176,-1286,376,-230,5976,312,968,942,752,-190,6040,-128,6576,-6937,0,720,752,612,8144,267,4488,541,5080,368,6520,-9,-6,?
2017-03-27 15:03:46.970000,930,6752,-42,1176,-1275,376,-241,5976,366,968,948,752,-180,6016,-76,6576,-6937,0,742,752,650,8144,290,4488,576,5080,386,6520,-8,-6,?
2017-03-27 15:03:46.978000,961,6752,-52,1176,-1241,376,-317,5976,387,968,969,752,-167,6016,-69,6536,-6937,0,776,752,684,8144,313,4488,592,5080,434,6520,-8,-6,?
2017-03-27 15:03:46.987000,901,6752,-50,1176,-1271,376,-359,5976,218,968,926,752,-214,6016,-137,6536,-6937,16,731,752,622,8144,261,4488,548,5080,417,6520,-7,-6,?
2017-03-27 15:03:46.994000,865,6752,-46,1176,-1302,376,-374,5976,209,968,896,752,-262,6016,-170,6536,-6937,16,694,704,574,8144,223,4488,538,5080,406,6520,-7,-6,?
2017-03-27 15:03:47.003000,913,6752,-51,1176,-1256,376,-353,5976,425,968,943,752,-240,6016,-121,6536,-6937,16,733,704,614,8152,251,4488,582,5080,475,6520,-7,-6,?
2017-03-27 15:03:47.009000,911,6752,-50,1176,-1251,376,-339,5976,403,968,930,752,-234,6016,-114,6536,-6937,16,726,704,598,8152,250,4560,565,5080,500,6520,-6,-6,?
2017-03-27 15:03:47.018000,877,6752,-54,1176,-1285,376,-367,5976,299,968,893,752,-254,6016,-136,6536,-6937,16,689,704,542,8152,233,4560,528,5064,486,6520,-6,-6,?
2017-03-27 15:03:47.025000,901,6752,-51,1176,-1282,376,-393,5976,371,968,896,752,-241,6016,-132,6536,-6937,16,688,704,543,8152,248,4560,541,5064,520,6520,-6,-6,?
2017-03-27 15:03:47.034000,891,6752,-54,1176,-1302,376,-410,5976,329,968,842,752,-248,6016,-138,6536,-6937,16,658,704,518,8144,223,4560,521,5064,526,6520,-5,-6,?
2017-03-27 15:03:47.041000,818,6752,-64,1176,-1351,376,-433,5976,205,968,784,752,-294,6016,-211,6536,-6937,16,622,704,435,8144,159,4560,478,5064,469,6520,-5,-7,?
2017-03-27 15:03:47.048000,801,6752,-57,1176,-1358,376,-435,5976,226,968,808,752,-296,6016,-241,6536,-6937,16,648,704,402,8144,147,4560,517,5064,459,6520,-5,-7,?
2017-03-27 15:03:47.056000,826,6752,-58,1176,-1348,376,-427,5976,221,968,785,752,-273,6016,-216,6536,-6937,16,689,704,418,8144,161,4560,573,5064,496,6520,-4,-6,?
2017-03-27 15:03:47.065000,828,6752,-55,1176,-1343,376,-429,5976,172,968,731,752,-281,6016,-277,6536,-6937,16,700,704,421,8144,151,4560,573,5064,494,6520,-4,-6,?
2017-03-27 15:03:47.072000,822,6752,-51,1176,-1324,376,-426,5976,223,968,771,752,-305,6016,-313,6536,-6937,16,709,704,417,8144,146,4560,546,5064,467,6520,-3,-6,?
2017-03-27 15:03:47.081000,822,6752,-58,1176,-1306,376,-423,5976,261,968,817,752,-312,6016,-211,6536,-6937,16,735,704,415,8144,161,4560,515,5064,482,6520,-2,-6,?
2017-03-27 15:03:47.087000,835,6752,-49,1176,-1287,376,-413,5976,255,968,819,752,-291,6016,-168,6536,-6937,16,755,704,408,8144,179,4560,505,5064,523,6520,-2,-5,?
2017-03-27 15:03:47.096000,853,6752,-49,1176,-1252,376,-412,5976,302,968,837,752,-267,6016,-239,6536,-6937,16,778,704,419,8144,188,4560,525,5064,534,6520,-1,-5,?
2017-03-27 15:03:47.103000,836,6752,-57,1176,-1244,376,-432,5976,292,968,850,752,-266,6016,-231,6536,-6937,16,780,704,418,8144,175,4560,522,5064,527,6520,-1,-5,?
2017-03-27 15:03:47.111000,810,6752,-54,1176,-1263,376,-443,5976,250,968,831,752,-263,6016,-184,6536,-6937,16,759,704,386,8144,149,4560,505,5064,536,6520,-1,-5,?
2017-03-27 15:03:47.120000,822,6752,-56,1176,-1256,376,-431,5976,315,968,834,752,-234,6016,-199,6536,-6937,16,768,704,387,8144,160,4560,528,5064,545,6520,0,-5,?
2017-03-27 15:03:47.127000,845,6752,-51,1176,-1228,376,-421,5976,365,968,859,752,-224,6016,-197,6536,-6937,16,782,704,410,8144,189,4560,551,5064,545,6520,0,-5,?
2017-03-27 15:03:47.134000,849,6752,-51,1176,-1215,376,-417,5976,328,968,854,752,-234,6016,-174,6536,-6937,16,782,704,411,8144,177,4560,547,5064,541,6520,0,-4,?
2017-03-27 15:03:47.142000,861,6752,-53,1176,-1216,376,-407,5976,305,968,843,752,-224,6016,-176,6536,-6937,16,810,704,420,8144,151,4560,560,5064,554,6520,0,-4,?
2017-03-27 15:03:47.150000,873,6752,-48,1176,-1222,376,-406,5976,318,968,861,752,-208,6016,-174,6536,-6937,16,834,704,434,8144,146,4560,582,5064,568,6520,0,-5,?
2017-03-27 15:03:47.159000,853,6752,-56,1176,-1236,376,-413,5976,323,968,869,752,-218,6016,-167,6536,-6938,16,804,704,414,8144,148,4560,573,5064,533,6520,0,-5,?
2017-03-27 15:03:47.166000,826,6752,-56,1176,-1259,376,-415,5976,303,968,827,752,-245,6016,-208,6536,-6939,16,763,704,380,8144,152,4560,558,5064,493,6520,0,-5,?
2017-03-27 15:03:47.173000,828,6752,-54,1176,-1257,376,-415,5976,290,968,791,752,-232,6016,-235,6536,-6939,16,755,704,381,8144,154,4560,563,5064,494,6520,0,-6,?
2017-03-27 15:03:47.181000,854,6752,-53,1176,-1229,376,-405,5976,350,968,813,752,-180,6016,-187,6536,-6940,16,766,704,409,8144,161,4560,573,5064,509,6520,-1,-6,?
2017-03-27 15:03:47.189000,866,6752,-47,1176,-1218,376,-386,5976,361,968,833,752,-173,6016,-145,6536,-6947,16,776,704,416,8144,171,4560,563,5064,493,6520,-1,-6,?
2017-03-27 15:03:47.197000,838,6752,-56,1176,-1233,376,-389,5976,253,968,815,752,-216,6016,-162,6536,-6936,16,772,704,388,8144,150,4560,531,5064,453,6520,-1,-6,?
2017-03-27 15:03:47.205000,827,6752,-56,1176,-1236,376,-387,5976,231,968,811,752,-218,6016,-184,6536,-6918,16,781,704,384,8144,138,4560,533,5064,452,6520,-2,-6,?
2017-03-27 15:03:47.212000,857,6752,-53,1176,-1221,376,-374,5976,325,968,837,752,-184,6016,-161,6536,-6906,16,806,704,424,8144,164,4560,569,5064,470,6520,-2,-6,?
2017-03-27 15:03:47.220000,866,6752,-58,1176,-1215,376,-382,5976,369,968,854,752,-182,6016,-138,6536,-6849,16,796,704,436,8144,156,4560,571,5064,446,6520,-2,-5,?
2017-03-27 15:03:47.228000,841,6752,-55,1176,-1229,376,-390,5976,329,968,836,752,-197,6016,-164,6536,-6775,16,756,704,401,8144,128,4560,550,5064,413,6520,-2,-5,?
2017-03-27 15:03:47.237000,831,6752,-59,1176,-1229,376,-372,5976,303,968,818,752,-189,6016,-180,6536,-6761,16,746,704,393,8144,143,4560,554,5064,411,6520,-2,-4,?
2017-03-27 15:03:47.244000,834,6752,-52,1176,-1207,376,-353,5976,297,968,822,752,-175,6016,-173,6536,-6774,16,759,704,398,8144,144,4560,554,5064,407,6520,-2,-3,?
2017-03-27 15:03:47.254000,824,6752,-42,1176,-1182,376,-361,5976,324,968,839,752,-168,6016,-173,6536,-6773,16,748,704,376,8144,117,4560,535,5064,386,6520,-2,-2,?
2017-03-27 15:03:47.260000,829,6752,-50,1176,-1155,376,-359,5976,376,968,847,752,-155,6016,-170,6536,-6782,16,745,704,380,8144,137,4560,539,5064,399,6520,-2,-1,?
2017-03-27 15:03:47.267000,847,6752,-47,1176,-1137,376,-332,5976,330,968,826,752,-143,6016,-165,6536,-6801,16,738,704,393,8144,155,4560,556,5064,428,6520,-2,0,?
2017-03-27 15:03:47.275000,847,6752,-45,1176,-1137,376,-319,5976,274,968,798,752,-149,6016,-163,6536,-6808,16,710,704,376,8144,120,4560,552,5064,418,6520,-2,1,?
2017-03-27 15:03:47.283000,852,6752,-49,1176,-1131,376,-316,5976,327,968,788,752,-154,6016,-167,6536,-6811,16,697,704,373,8144,107,4560,554,5064,411,6520,-1,2,?
2017-03-27 15:03:47.291000,855,6752,-47,1176,-1131,376,-304,5976,341,968,767,752,-153,6016,-173,6536,-6812,16,681,704,370,8144,121,4560,552,5064,416,6520,-1,2,?
2017-03-27 15:03:47.299000,846,6752,-49,1176,-1140,376,-290,5976,275,968,722,752,-157,6016,-165,6536,-6812,16,649,704,347,8144,109,4560,537,5064,405,6520,-1,2,?
2017-03-27 15:03:47.306000,863,6752,-42,1176,-1126,376,-286,5976,303,968,720,752,-147,6016,-139,6536,-6814,16,631,704,351,8144,89,4560,546,5064,418,6520,0,2,?
2017-03-27 15:03:47.314000,884,6752,-48,1176,-1097,376,-290,5976,367,968,751,752,-132,6016,-107,6536,-6815,16,642,704,369,8144,85,4560,558,5064,434,6520,0,2,?
2017-03-27 15:03:47.323000,887,6752,-52,1176,-1081,376,-293,5976,360,968,748,752,-128,6016,-118,6536,-6815,16,653,704,364,8144,100,4560,555,5064,432,6520,0,2,?
2017-03-27 15:03:47.330000,895,6752,-40,1176,-1072,376,-293,5976,355,968,739,752,-130,6016,-141,6536,-6815,16,642,704,369,8144,120,4560,567,5064,442,6520,0,1,?
2017-03-27 15:03:47.338000,896,6752,-44,1176,-1072,376,-296,5976,314,968,732,752,-140,6016,-125,6536,-6815,16,620,704,367,8144,102,4560,565,5064,437,6520,0,-1,?
2017-03-27 15:03:47.345000,889,6752,-45,1176,-1084,376,-298,5976,280,968,722,752,-153,6016,-90,6536,-6816,16,600,704,347,8144,71,4560,548,5064,414,6520,0,-2,?
2017-03-27 15:03:47.354000,889,6752,-44,1176,-1078,376,-290,5976,339,968,755,752,-153,6016,-100,6536,-6812,16,597,704,362,8144,73,4560,552,5064,418,6520,0,-3,?
2017-03-27 15:03:47.361000,895,6752,-45,1176,-1056,376,-292,5976,364,968,810,752,-151,6016,-151,6536,-6809,16,591,704,392,8144,82,4560,565,5064,434,6520,0,-3,?
2017-03-27 15:03:47.370000,893,6752,-40,1176,-1045,376,-306,5976,320,968,833,752,-164,6016,-159,6536,-6813,16,587,704,400,8144,92,4560,560,5064,436,6520,0,-4,?
2017-03-27 15:03:47.377000,893,6752,-46,1176,-1040,376,-298,5976,330,968,859,752,-161,6016,-144,6536,-6807,16,608,704,424,8144,117,4560,560,5064,444,6520,0,-4,?
2017-03-27 15:03:47.385000,891,6752,-46,1176,-1038,376,-289,5976,345,968,892,752,-163,6016,-166,6536,-6791,16,610,704,444,8144,113,4560,565,5064,441,6520,0,-4,?
2017-03-27 15:03:47.392000,891,6752,-46,1176,-1025,376,-311,5976,342,968,921,752,-174,6016,-166,6536,-6786,16,605,704,444,8144,96,4560,561,5064,425,6520,0,-4,?
2017-03-27 15:03:47.403000,907,6752,-46,1176,-997,376,-312,5976,364,968,976,752,-158,6016,-111,6536,-6770,16,624,704,470,8144,111,4560,572,5064,447,6520,0,-5,?
2017-03-27 15:03:47.408000,898,6752,-44,1176,-1013,376,-306,5976,317,968,988,752,-145,6016,-112,6536,-6751,16,612,704,478,8144,111,4560,580,5064,441,6520,0,-5,?
2017-03-27 15:03:47.416000,866,6760,-53,1176,-1052,376,-328,5976,290,968,961,752,-155,6016,-150,6536,-6747,16,582,704,444,8144,79,4560,568,5064,387,6520,0,-5,?
2017-03-27 15:03:47.425000,874,6760,-51,1168,-1032,376,-319,5976,367,968,986,752,-158,6016,-122,6536,-6733,16,594,704,442,8144,37,4560,583,5064,396,6520,0,-5,?
2017-03-27 15:03:47.431000,893,6760,-46,1168,-997,376,-286,5976,333,968,993,752,-160,6016,-139,6536,-6717,16,594,704,454,8144,-26,4560,608,5064,420,6344,0,-5,?
2017-03-27 15:03:47.439000,879,6760,-51,1168,-1007,352,-294,5976,234,968,952,752,-174,6016,-173,6536,-6727,16,556,704,433,8144,-75,4560,625,5064,393,6344,0,-5,?
2017-03-27 15:03:47.447000,871,6760,-45,1168,-1010,352,-318,2136,294,968,971,752,-159,6016,-98,6536,-6713,16,544,704,423,8144,-69,4560,663,5064,392,6344,1,-4,?
2017-03-27 15:03:47.456000,885,6760,-47,1168,-984,352,-299,2136,383,792,1023,752,-124,6016,-47,6536,-6650,16,553,704,444,8144,-48,4560,695,5064,416,6344,1,-4,?
2017-03-27 15:03:47.463000,896,6760,-47,1168,-972,352,-265,2136,331,792,1013,744,-118,6016,-104,6536,-6620,16,541,704,456,8144,-45,4560,699,5064,422,6344,1,-4,?
2017-03-27 15:03:47.472000,885,6760,-46,1168,-990,352,-286,2136,291,792,995,744,-123,6328,-120,6536,-6611,16,520,704,441,8144,-62,4560,684,5064,412,6344,1,-4,?
2017-03-27 15:03:47.479000,851,6760,-54,1168,-1008,352,-312,2136,333,792,1020,744,-118,6328,-74,6560,-6520,16,495,704,411,8144,-86,4560,645,5064,389,6344,2,-3,?
2017-03-27 15:03:47.486000,838,6760,-48,1168,-1000,352,-295,2136,318,792,1036,744,-119,6328,-68,6560,-6413,3968,460,704,394,8144,-99,4560,619,5064,375,6344,2,-3,?
2017-03-27 15:03:47.494000,850,6760,-46,1168,-985,352,-297,2136,286,792,1051,744,-122,6328,-83,6560,-6373,3968,436,536,402,8144,-86,4560,628,5064,376,6344,2,-3,?
2017-03-27 15:03:47.503000,855,6760,-48,1168,-983,352,-316,2136,333,792,1071,744,-107,6328,-94,6560,-6305,3968,439,536,409,8152,-65,4560,649,5064,381,6344,2,-2,?
2017-03-27 15:03:47.511000,852,6760,-44,1168,-994,352,-314,2136,339,792,1067,744,-96,6328,-107,6560,-6210,3968,429,536,405,8152,-68,4568,664,5064,387,6344,3,-2,?
2017-03-27 15:03:47.517000,863,6760,-46,1168,-984,352,-294,2136,302,792,1077,744,-81,6328,-69,6560,-6159,3968,390,536,420,8152,-66,4568,681,5320,392,6344,3,-2,?
2017-03-27 15:03:47.525000,876,6760,-41,1168,-968,352,-273,2136,286,792,1084,744,-60,6328,-33,6560,-6115,3968,365,512,430,8152,-50,4568,695,5320,382,6344,3,-1,?
2017-03-27 15:03:47.533000,853,6760,-46,1168,-987,352,-302,2136,254,792,1053,744,-88,6328,-67,6560,-6078,3968,346,512,402,8136,-72,4568,682,5320,356,6344,3,-1,?
2017-03-27 15:03:47.541000,831,6760,-49,1168,-997,352,-358,2136,299,792,1045,744,-148,6328,-63,6560,-6068,3968,337,512,401,8136,-88,4552,677,5320,357,6344,4,-1,?
2017-03-27 15:03:47.549000,852,6760,-38,1168,-973,352,-365,2136,415,792,1078,744,-165,6328,-7,6560,-6049,3968,357,512,432,8136,-63,4552,700,5320,374,6344,4,0,?
2017-03-27 15:03:47.558000,852,6760,-49,1168,-968,352,-320,2136,393,792,1084,744,-162,6328,-22,6560,-6016,3968,349,512,418,8136,-75,4552,693,5320,358,6344,4,0,?
2017-03-27 15:03:47.564000,844,6760,-49,1168,-971,352,-276,2136,307,792,1076,744,-150,6328,-43,6560,-6008,3968,332,512,403,8136,-103,4552,689,5320,366,6344,4,0,?
2017-03-27 15:03:47.572000,884,6760,-40,1168,-952,352,-275,2136,330,792,1081,744,-111,6328,-4,6560,-6000,3968,380,512,450,8136,-67,4552,730,5320,408,6344,4,0,?
2017-03-27 15:03:47.580000,886,6760,-47,1168,-959,352,-306,2136,345,792,1068,744,-90,6328,-1,6560,-5953,3968,404,512,458,8136,-45,4552,730,5320,398,6344,4,0,?
2017-03-27 15:03:47.588000,833,6760,-48,1168,-983,352,-311,2136,298,792,1050,744,-84,6328,-25,6560,-5873,3968,364,512,408,8136,-82,4552,697,5320,372,6344,4,0,?
2017-03-27 15:03:47.596000,840,6760,-50,1168,-959,352,-284,2136,299,792,1058,744,-45,6328,-2,6560,-5783,3968,383,512,422,8136,-81,4552,726,5320,399,6344,4,0,?
2017-03-27 15:03:47.603000,893,6760,-46,1168,-931,352,-278,2136,355,792,1074,744,-14,6328,22,6560,-5723,3968,433,512,473,8136,-35,4552,772,5320,421,6344,4,0,?
2017-03-27 15:03:47.611000,880,6760,-44,1168,-953,352,-309,2136,360,792,1068,744,-27,6328,11,6560,-5699,3968,404,512,460,8136,-42,4552,753,5320,395,6344,4,0,?
2017-03-27 15:03:47.619000,834,6760,-55,1168,-987,352,-346,2136,278,792,1044,744,-50,6328,-10,6560,-5681,3968,348,512,421,8136,-94,4552,723,5320,372,6344,4,-1,?
2017-03-27 15:03:47.627000,857,6760,-50,1168,-964,352,-332,2136,288,792,1037,744,-31,6328,19,6560,-5626,3968,383,512,447,8136,-76,4552,749,5320,388,6344,4,-1,?
2017-03-27 15:03:47.635000,896,6760,-47,1168,-930,352,-309,2136,369,792,1035,744,9,6328,80,6560,-5562,3968,438,512,490,8136,-26,4552,765,5320,405,6344,3,-1,?
2017-03-27 15:03:47.643000,878,6760,-49,1168,-950,352,-331,2136,340,792,1030,744,5,6328,77,6560,-5574,3968,414,512,473,8136,-40,4552,736,5320,403,6344,3,-1,?
2017-03-27 15:03:47.650000,870,6760,-50,1168,-966,352,-314,2136,306,792,1036,744,-11,6328,42,6560,-5613,3968,400,512,461,8136,-45,4552,724,5320,407,6344,3,-2,?
2017-03-27 15:03:47.659000,890,6760,-50,1168,-940,352,-272,2136,345,792,1032,744,0,6328,52,6560,-5602,3968,429,512,486,8136,-14,4552,738,5320,419,6344,2,-2,?
2017-03-27 15:03:47.666000,874,6760,-39,1168,-945,352,-286,2136,332,792,1001,744,-14,6328,48,6560,-5583,3968,414,512,479,8136,-24,4552,723,5320,414,6344,2,-3,?
2017-03-27 15:03:47.675000,855,6760,-47,1168,-960,352,-293,2136,305,792,982,744,-38,6328,26,6560,-5583,3968,394,512,467,8136,-41,4552,707,5320,403,6344,2,-3,?
2017-03-27 15:03:47.682000,861,6760,-57,1168,-953,352,-283,2136,329,792,976,744,-33,6328,38,6560,-5584,3968,413,512,480,8136,-30,4552,712,5320,398,6344,1,-4,?
2017-03-27 15:03:47.690000,839,6760,-47,1168,-965,352,-297,2136,338,792,972,744,-44,6328,35,6560,-5597,3968,401,512,460,8136,-29,4552,691,5320,373,6344,1,-4,?
2017-03-27 15:03:47.698000,856,6760,-42,1168,-945,352,-280,2136,373,792,1001,744,-31,6328,32,6560,-5575,3968,405,512,472,8136,-11,4552,701,5320,378,6344,1,-4,?
2017-03-27 15:03:47.705000,914,6760,-43,1168,-899,352,-276,2136,377,792,987,744,7,6328,55,6560,-5533,3968,451,512,528,8136,19,4552,736,5320,419,6344,1,-3,?
2017-03-27 15:03:47.713000,881,6760,-57,1168,-935,352,-348,2136,300,792,912,744,-25,6328,39,6560,-5591,3968,417,512,495,8136,-4,4552,691,5320,391,6344,1,-3,?
2017-03-27 15:03:47.721000,827,6760,-56,1168,-988,352,-367,2136,289,792,902,744,-76,6328,-10,6560,-5669,3968,333,512,422,8136,-28,4552,640,5320,342,6344,1,-2,?
2017-03-27 15:03:47.729000,843,6760,-43,1168,-973,352,-323,2136,319,792,922,744,-60,6328,-30,6560,-5632,3968,326,512,430,8136,-22,4552,662,5320,353,6344,2,-1,?
2017-03-27 15:03:47.737000,842,6760,-55,1168,-966,352,-345,2136,300,792,888,744,-47,6328,-13,6560,-5622,3968,375,512,445,8136,-18,4552,667,5320,367,6344,2,0,?
2017-03-27 15:03:47.744000,829,6760,-50,1168,-979,352,-367,2136,312,792,869,744,-70,6328,20,6560,-5728,3968,406,512,435,8136,0,4552,653,5320,377,6344,2,1,?
2017-03-27 15:03:47.754000,857,6760,-41,1168,-973,352,-339,2136,314,792,876,744,-80,6328,32,6560,-5781,3968,398,512,441,8136,16,4552,661,5320,398,6344,2,1,?
2017-03-27 15:03:47.760000,850,6760,-55,1168,-1003,352,-366,2136,247,792,815,744,-94,6328,-6,6560,-5734,3968,352,512,409,8136,-12,4552,642,5320,380,6344,3,2,?
2017-03-27 15:03:47.769000,816,6760,-55,1168,-1027,352,-398,2136,261,792,762,744,-105,6328,-14,6560,-5691,3968,331,512,365,8136,-45,4552,623,5320,366,6344,3,1,?
2017-03-27 15:03:47.775000,838,6760,-46,1168,-993,352,-380,2136,337,792,778,744,-65,6328,34,6560,-5667,3968,352,512,383,8136,-36,4552,645,5320,401,6344,3,1,?
2017-03-27 15:03:47.783000,876,6760,-46,1168,-983,352,-391,2136,319,792,768,744,-24,6328,56,6560,-5639,3968,344,512,403,8136,-25,4552,665,5320,426,6344,3,1,?
2017-03-27 15:03:47.791000,864,6760,-54,1168,-1008,352,-445,2136,268,792,724,744,-41,6328,25,6560,-5629,3968,307,512,379,8136,-43,4552,652,5320,402,6344,2,0,?
2017-03-27 15:03:47.799000,843,6760,-52,1168,-1011,352,-453,2136,267,792,714,744,-66,6328,-1,6560,-5604,3968,316,512,363,8136,-40,4552,638,5320,392,6344,2,0,?
2017-03-27 15:03:47.806000,856,6760,-46,1168,-1001,352,-410,2136,299,792,741,744,-42,6328,39,6560,-5521,3968,348,512,377,8136,1,4552,648,5320,405,6344,2,-1,?
2017-03-27 15:03:47.815000,849,6760,-60,1168,-1009,352,-415,2136,314,792,750,744,-29,6328,83,6560,-5451,3968,330,512,385,8136,9,4552,642,5320,386,6344,2,-1,?
2017-03-27 15:03:47.822000,830,6760,-53,1168,-1017,352,-472,2136,277,792,746,744,-53,6328,58,6560,-5399,3968,302,512,383,8136,-23,4552,633,5320,381,6344,2,-2,?
2017-03-27 15:03:47.830000,846,6760,-36,1168,-1006,352,-499,2136,266,792,793,744,-52,6328,38,6560,-5324,3968,338,512,406,8136,-10,4552,645,5320,421,6344,2,-2,?
2017-03-27 15:03:47.838000,870,6760,-44,1168,-978,352,-485,2136,317,792,877,744,-19,6328,83,6560,-5269,3968,371,512,445,8136,40,4552,659,5320,439,6344,2,-2,?
2017-03-27 15:03:47.846000,867,6760,-52,1168,-972,352,-493,2136,335,792,924,744,1,6328,104,6560,-5241,3968,344,512,444,8136,47,4552,660,5320,421,6344,2,-3,?
2017-03-27 15:03:47.854000,830,6760,-60,1168,-1008,352,-519,2136,294,792,919,744,-16,6328,46,6560,-5221,3968,304,512,408,8136,3,4552,632,5320,389,6344,1,-3,?
2017-03-27 15:03:47.862000,794,6760,-57,1168,-1037,352,-521,2136,263,792,913,744,-47,6328,12,6560,-5228,3968,291,512,389,8136,-6,4552,609,5320,372,6344,1,-3,?
2017-03-27 15:03:47.870000,815,6760,-48,1168,-1027,352,-521,2136,274,792,940,744,-28,6328,55,6560,-5197,3968,320,512,419,8136,54,4552,639,5320,393,6344,1,-3,?
2017-03-27 15:03:47.877000,846,6760,-51,1168,-1025,352,-517,2136,290,792,961,744,9,6328,88,6560,-5111,3968,353,512,456,8136,51,4552,677,5320,415,6344,1,-3,?
2017-03-27 15:03:47.885000,806,6760,-55,1168,-1067,352,-527,2136,300,792,949,744,-29,6328,54,6560,-5147,3968,318,512,439,8136,27,4552,662,5320,395,6344,1,-3,?
2017-03-27 15:03:47.893000,745,6760,-65,1168,-1108,352,-550,2136,315,792,939,744,-103,6328,11,6560,-5275,3968,251,512,389,8136,108,4552,622,5320,359,6344,1,-3,?
2017-03-27 15:03:47.901000,747,6760,-56,1168,-1101,352,-544,2136,314,792,946,744,-124,6328,8,6560,-5263,3968,245,512,381,8136,137,4552,607,5320,362,6344,1,-3,?
2017-03-27 15:03:47.907000,788,6760,-37,1168,-1056,352,-520,2136,302,792,980,744,-87,6328,33,6560,-5177,3968,292,512,425,8136,49,4552,654,5320,403,6344,2,-3,?
2017-03-27 15:03:47.916000,813,6760,-44,1168,-1024,352,-513,2136,307,792,1008,744,-53,6328,44,6560,-5188,3968,323,512,463,8136,32,4552,725,5320,426,6344,2,-3,?
2017-03-27 15:03:47.924000,790,6768,-53,1168,-1062,352,-545,2136,322,792,998,744,-67,6328,25,6560,-5266,3968,307,512,450,8136,78,4552,741,5320,403,6344,2,-3,?
2017-03-27 15:03:47.932000,753,6768,-59,1120,-1106,352,-568,2136,318,792,988,744,-99,6328,17,6560,-5315,3968,268,512,419,8136,58,4552,722,5320,375,6344,2,-2,?
2017-03-27 15:03:47.940000,768,6768,-57,1120,-1084,352,-537,2136,292,792,1003,744,-95,6328,31,6560,-5333,3968,248,512,421,8136,28,4552,733,5320,385,6392,2,-2,?
2017-03-27 15:03:47.948000,782,6768,-50,1120,-1063,368,-529,2136,268,792,1002,744,-76,6328,32,6560,-5338,3968,237,512,427,8136,18,4552,717,5320,392,6392,2,-1,?
2017-03-27 15:03:47.955000,750,6768,-60,1120,-1092,368,-562,2520,295,792,1003,744,-70,6328,41,6560,-5315,3968,227,512,409,8136,-1,4552,660,5320,375,6392,2,-1,?
2017-03-27 15:03:47.963000,740,6768,-56,1120,-1101,368,-577,2520,335,888,1035,744,-66,6328,45,6560,-5310,3968,227,512,405,8136,8,4552,650,5320,374,6392,2,-1,?
2017-03-27 15:03:47.971000,758,6768,-49,1120,-1078,368,-584,2520,322,888,1043,760,-63,6328,34,6560,-5335,3968,230,512,425,8136,20,4552,673,5320,384,6392,2,-1,?
2017-03-27 15:03:47.979000,762,6768,-51,1120,-1068,368,-566,2520,310,888,1040,760,-52,6336,59,6560,-5310,3968,240,512,441,8136,29,4552,678,5320,402,6392,2,0,?
2017-03-27 15:03:47.987000,751,6768,-51,1120,-1072,368,-550,2520,309,888,1052,760,-46,6336,69,6784,-5284,3968,225,512,421,8136,29,4552,672,5320,401,6392,2,0,?
2017-03-27 15:03:47.994000,722,6768,-63,1120,-1092,368,-579,2520,269,888,1015,760,-75,6336,13,6784,-5319,3896,176,512,385,8136,-8,4552,657,5320,356,6392,2,0,?
2017-03-27 15:03:48.002000,706,6768,-58,1120,-1109,368,-595,2520,252,888,969,760,-98,6336,-6,6784,-5329,3896,161,552,380,8136,-16,4552,654,5320,341,6392,3,0,?
2017-03-27 15:03:48.010000,718,6768,-50,1120,-1113,368,-580,2520,291,888,995,760,-78,6336,28,6784,-5264,3896,196,552,403,8152,8,4552,672,5320,363,6392,3,0,?
2017-03-27 15:03:48.018000,739,6768,-61,1120,-1109,368,-543,2520,338,888,1017,760,-52,6336,45,6784,-5213,3896,220,552,421,8152,17,4648,689,5320,376,6392,3,0,?
2017-03-27 15:03:48.026000,767,6768,-51,1120,-1066,368,-522,2520,406,888,990,760,-56,6336,50,6784,-5200,3896,213,552,439,8152,30,4648,702,5328,399,6392,3,0,?
2017-03-27 15:03:48.034000,746,6768,-48,1120,-1044,368,-538,2520,342,888,944,760,-99,6336,10,6784,-5208,3896,160,544,430,8152,12,4648,678,5328,392,6392,3,0,?
2017-03-27 15:03:48.042000,671,6768,-61,1120,-1110,368,-568,2520,103,888,862,760,-160,6336,-80,6784,-5253,3896,77,544,374,8144,-60,4648,629,5328,336,6392,4,-1,?
2017-03-27 15:03:48.049000,680,6768,-51,1120,-1118,368,-570,2520,145,888,856,760,-153,6336,-61,6784,-5264,3896,104,544,394,8144,-53,4648,654,5328,351,6392,3,0,?
2017-03-27 15:03:48.057000,765,6768,-40,1120,-1021,368,-551,2520,405,888,971,760,-72,6336,37,6784,-5227,3896,206,544,494,8144,27,4648,724,5328,441,6392,3,0,?
2017-03-27 15:03:48.066000,742,6768,-49,1120,-1041,368,-583,2520,236,888,972,760,-88,6336,-10,6784,-5252,3896,172,544,473,8144,2,4648,702,5328,423,6392,3,0,?
2017-03-27 15:03:48.074000,684,6768,-56,1120,-1115,368,-607,2520,-73,888,879,760,-166,6336,-95,6784,-5295,3896,106,544,398,8144,-51,4648,653,5328,352,6392,3,0,?
2017-03-27 15:03:48.081000,737,6768,-44,1120,-1059,368,-565,2520,94,888,936,760,-110,6336,-14,6784,-5259,3896,173,544,447,8144,-2,4648,694,5328,402,6392,2,0,?
2017-03-27 15:03:48.088000,789,6768,-43,1120,-1000,368,-543,2520,466,888,1048,760,-13,6336,101,6784,-5204,3896,239,544,523,8144,48,4648,746,5328,472,6392,2,0,?
2017-03-27 15:03:48.096000,746,6768,-61,1120,-1046,368,-577,2520,456,888,987,760,-64,6336,61,6784,-5249,3896,186,544,491,8144,31,4648,712,5328,426,6392,2,0,?
2017-03-27 15:03:48.105000,680,6768,-58,1120,-1113,368,-603,2520,136,888,840,760,-176,6336,-71,6784,-5347,3896,89,544,399,8144,-19,4648,641,5328,341,6392,1,-1,?
2017-03-27 15:03:48.112000,677,6768,-54,1120,-1109,368,-610,2520,126,888,820,760,-147,6336,-44,6784,-5321,3896,92,544,393,8144,-24,4648,645,5328,335,6392,1,-1,?
2017-03-27 15:03:48.121000,739,6768,-53,1120,-1055,368,-605,2520,453,888,886,760,-27,6336,115,6784,-5199,3896,178,544,474,8144,40,4648,716,5328,404,6392,1,-2,?
2017-03-27 15:03:48.128000,742,6768,-54,1120,-1073,368,-597,2520,452,888,831,760,-38,6336,88,6784,-5205,3896,167,544,460,8144,43,4648,708,5328,407,6392,0,-3,?
2017-03-27 15:03:48.136000,692,6768,-67,1120,-1116,368,-618,2520,196,888,731,760,-121,6336,-59,6784,-5298,3896,113,544,391,8144,0,4648,656,5328,362,6392,-1,-3,?
2017-03-27 15:03:48.143000,734,6768,-56,1120,-1051,368,-606,2520,258,888,768,760,-80,6336,-18,6784,-5274,3896,177,544,446,8144,42,4648,701,5328,421,6392,-1,-4,?
2017-03-27 15:03:48.152000,751,6768,-57,1120,-1030,368,-575,2520,376,888,793,760,-27,6336,70,6784,-5205,3896,182,544,473,8144,56,4648,715,5328,453,6392,-2,-4,?
2017-03-27 15:03:48.159000,654,6768,-73,1120,-1144,368,-630,2520,254,888,704,760,-99,6336,-13,6784,-5238,3896,63,544,359,8144,-36,4648,620,5328,358,6392,-3,-4,?
2017-03-27 15:03:48.168000,663,6768,-50,1120,-1143,368,-653,2520,259,888,703,760,-111,6336,-47,6784,-5257,3896,83,544,350,8144,-38,4648,624,5328,366,6392,-3,-4,?
2017-03-27 15:03:48.174000,764,6768,-43,1120,-1028,368,-599,2520,395,888,790,760,-20,6336,59,6784,-5064,3896,177,544,456,8144,37,4648,704,5328,481,6392,-3,-4,?
2017-03-27 15:03:48.183000,733,6768,-66,1120,-1054,368,-624,2520,388,888,769,760,-10,6336,92,6784,-4752,3896,115,544,432,8144,4,4648,687,5328,482,6392,-3,-3,?
2017-03-27 15:03:48.190000,639,6768,-67,1120,-1158,368,-688,2520,255,888,679,760,-72,6336,2,6784,-4631,3896,26,544,335,8144,-67,4648,645,5328,404,6392,-3,-3,?
2017-03-27 15:03:48.199000,667,6768,-51,1120,-1137,368,-674,2520,215,888,678,760,-64,6336,-27,6784,-4676,3896,80,544,358,8144,-27,4648,686,5328,419,6392,-3,-2,?
2017-03-27 15:03:48.206000,720,6768,-51,1120,-1075,368,-628,2520,308,888,726,760,-23,6336,42,6784,-4642,3896,122,544,414,8144,17,4648,716,5328,473,6392,-1,-1,?
2017-03-27 15:03:48.213000,685,6768,-65,1120,-1088,368,-628,2520,367,888,727,760,-35,6336,69,6784,-4622,3896,67,544,384,8144,-20,4648,694,5328,469,6392,-1,0,?
2017-03-27 15:03:48.221000,661,6768,-54,1120,-1104,368,-653,2520,335,888,690,760,-60,6336,21,6784,-4754,3896,45,544,359,8144,-34,4648,701,5328,469,6392,0,1,?
2017-03-27 15:03:48.229000,689,6768,-42,1120,-1074,368,-652,2520,269,888,665,760,-51,6336,-8,6784,-4872,3896,58,544,373,8144,-13,4648,719,5328,495,6392,1,2,?
2017-03-27 15:03:48.237000,688,6768,-54,1120,-1062,368,-626,2520,262,888,663,760,-50,6336,18,6784,-4892,3896,28,544,364,8144,-35,4648,699,5328,503,6392,2,2,?
2017-03-27 15:03:48.246000,668,6768,-49,1120,-1071,368,-619,2520,346,888,662,760,-65,6336,54,6784,-4911,3896,7,544,355,8144,-56,4648,699,5328,516,6392,2,3,?
2017-03-27 15:03:48.254000,662,6768,-47,1120,-1067,368,-652,2520,410,888,665,760,-61,6336,55,6784,-4944,3896,25,544,363,8144,-37,4648,713,5328,531,6392,3,3,?
2017-03-27 15:03:48.260000,680,6768,-43,1120,-1039,368,-644,2520,365,888,683,760,-25,6336,50,6784,-4917,3896,33,544,377,8144,-27,4648,716,5328,538,6392,3,3,?
2017-03-27 15:03:48.268000,718,6768,-39,1120,-997,368,-618,2520,341,888,695,760,0,6336,95,6784,-4851,3896,44,544,401,8144,-30,4648,727,5328,572,6392,3,3,?
2017-03-27 15:03:48.276000,724,6768,-55,1120,-988,368,-668,2520,370,888,653,760,-36,6336,103,6784,-4863,3896,35,544,391,8144,-35,4648,715,5328,593,6392,3,2,?
2017-03-27 15:03:48.284000,693,6768,-54,1120,-1024,368,-675,2520,286,888,582,760,-78,6336,19,6784,-4919,3896,-24,544,335,8144,-62,4648,683,5328,566,6392,3,2,?
2017-03-27 15:03:48.292000,699,6768,-47,1120,-1022,368,-609,2520,239,888,584,760,-50,6336,10,6784,-4876,3896,-35,544,335,8144,-74,4648,692,5328,561,6392,3,2,?
2017-03-27 15:03:48.300000,740,6768,-48,1120,-974,368,-618,2520,356,888,654,760,-26,6336,92,6784,-4802,3896,8,544,384,8144,-48,4648,726,5328,593,6392,3,2,?
2017-03-27 15:03:48.307000,737,6768,-49,1120,-971,368,-665,2520,395,888,672,760,-69,6336,76,6784,-4835,3896,-6,544,379,8144,-40,4648,716,5328,579,6392,2,1,?
2017-03-27 15:03:48.315000,706,6768,-56,1120,-1003,368,-650,2520,317,888,649,760,-100,6336,-9,6784,-4889,3896,-35,544,362,8144,-37,4648,693,5328,542,6392,2,1,?
2017-03-27 15:03:48.323000,727,6768,-52,1120,-978,368,-633,2520,320,888,680,760,-56,6336,15,6784,-4840,3896,11,544,408,8144,-16,4648,722,5328,568,6392,2,0,?
2017-03-27 15:03:48.331000,754,6768,-51,1120,-943,368,-669,2520,377,888,739,760,-19,6336,92,6784,-4768,3896,58,544,456,8144,-10,4648,745,5328,583,6392,1,0,?
2017-03-27 15:03:48.339000,717,6768,-57,1120,-979,368,-695,2520,335,888,728,760,-51,6336,60,6784,-4809,3896,34,544,436,8144,7,4648,709,5328,533,6392,1,-1,?
2017-03-27 15:03:48.346000,707,6768,-57,1120,-990,368,-673,2520,299,888,684,760,-68,6336,6,6784,-4861,3896,29,544,418,8144,23,4648,690,5328,516,6392,1,-2,?
2017-03-27 15:03:48.354000,753,6768,-61,1120,-930,368,-662,2520,366,888,715,760,-23,6336,37,6784,-4802,3896,90,544,458,8144,29,4648,738,5328,546,6392,1,-2,?
2017-03-27 15:03:48.363000,743,6768,-61,1120,-929,368,-682,2520,386,888,744,760,-23,6336,41,6784,-4758,3896,91,544,463,8144,187,4648,776,5328,530,6392,1,-2,?
2017-03-27 15:03:48.370000,707,6768,-61,1120,-974,368,-668,2520,305,888,706,760,-71,6336,24,6784,-4776,3896,42,544,436,8144,456,4648,777,5328,498,6392,1,-2,?
2017-03-27 15:03:48.379000,719,6768,-60,1120,-973,368,-658,2520,277,888,689,760,-77,6336,59,6784,-4770,3896,47,544,450,8144,537,4648,787,5328,514,6392,1,-2,?
2017-03-27 15:03:48.386000,721,6768,-57,1120,-966,368,-691,2520,325,888,733,760,-58,6336,50,6784,-4754,3896,66,544,465,8144,468,4648,787,5328,524,6392,1,-2,?
2017-03-27 15:03:48.394000,702,6768,-64,1120,-960,368,-682,2520,337,888,770,760,-55,6336,14,6784,-4731,3896,62,544,462,8144,485,4648,759,5328,512,6392,1,-2,?
2017-03-27 15:03:48.402000,710,6768,-62,1120,-940,368,-645,2520,326,888,776,760,-65,6336,35,6784,-4709,3896,56,544,466,8144,500,4648,739,5328,514,6392,1,-2,?
2017-03-27 15:03:48.410000,721,6768,-61,1120,-946,368,-661,2520,344,888,777,760,-66,6336,46,6784,-4733,3896,48,544,470,8144,440,4648,737,5328,516,6392,1,-3,?
2017-03-27 15:03:48.417000,736,6768,-61,1120,-943,368,-689,2520,344,888,781,760,-38,6336,50,6784,-4744,3896,50,544,483,8144,433,4648,748,5328,525,6392,2,-3,?
2017-03-27 15:03:48.426000,757,6760,-54,1120,-914,368,-664,2520,327,888,793,760,-19,6336,60,6784,-4714,3896,74,544,510,8144,468,4648,766,5328,544,6392,2,-3,?
2017-03-27 15:03:48.433000,720,6760,-69,1208,-940,368,-650,2520,304,888,779,760,-62,6336,32,6784,-4722,3896,49,544,483,8144,434,4648,739,5328,513,6392,2,-3,?
2017-03-27 15:03:48.441000,693,6760,-65,1208,-963,368,-656,2520,256,888,760,760,-80,6336,34,6784,-4731,3896,16,544,451,8144,390,4648,716,5328,496,6368,2,-2,?
2017-03-27 15:03:48.449000,736,6760,-45,1208,-919,368,-655,2520,229,888,778,760,-36,6336,61,6784,-4700,3896,52,544,489,8144,418,4648,744,5328,535,6368,3,-2,?
2017-03-27 15:03:48.457000,735,6760,-56,1208,-909,368,-661,2920,269,888,793,760,-35,6336,26,6784,-4707,3896,54,544,489,8144,410,4648,733,5328,527,6368,3,-2,?
2017-03-27 15:03:48.464000,696,6760,-65,1208,-941,368,-661,2920,315,952,807,760,-70,6336,-10,6784,-4735,3896,4,544,443,8144,348,4648,702,5328,490,6368,3,-1,?
2017-03-27 15:03:48.471000,731,6760,-52,1208,-906,368,-646,2920,354,952,860,736,-42,6336,55,6784,-4673,3896,29,544,481,8144,371,4648,747,5328,519,6368,3,-1,?
2017-03-27 15:03:48.479000,782,6760,-43,1208,-853,368,-637,2920,394,952,905,736,4,6408,121,6784,-4588,3896,80,544,546,8144,433,4648,808,5328,573,6368,3,-1,?
2017-03-27 15:03:48.487000,713,6760,-54,1208,-918,368,-648,2920,260,952,837,736,-41,6408,36,6792,-4617,3896,15,544,484,8144,365,4648,771,5328,525,6368,3,0,?
2017-03-27 15:03:48.495000,644,6760,-67,1208,-979,368,-659,2920,117,952,768,736,-84,6408,-58,6792,-4667,5088,-41,544,413,8144,289,4648,701,5328,469,6368,3,0,?
2017-03-27 15:03:48.504000,705,6760,-51,1208,-912,368,-654,2920,301,952,843,736,-40,6408,29,6792,-4619,5088,17,696,472,8144,349,4648,750,5328,532,6368,3,0,?
2017-03-27 15:03:48.511000,749,6760,-46,1208,-853,368,-625,2920,455,952,907,736,3,6408,135,6792,-4555,5088,62,696,532,8152,402,4648,815,5328,588,6368,3,1,?
2017-03-27 15:03:48.519000,723,6760,-52,1208,-869,368,-604,2920,324,952,858,736,10,6408,89,6792,-4537,5088,58,696,520,8152,385,4656,668,5328,565,6368,3,1,?
2017-03-27 15:03:48.526000,689,6760,-50,1208,-908,368,-644,2920,298,952,817,736,-16,6408,31,6792,-4546,5088,22,696,476,8152,354,4656,401,5320,519,6368,3,1,?
2017-03-27 15:03:48.535000,645,6760,-64,1208,-960,368,-685,2920,357,952,797,736,-66,6408,38,6792,-4604,5088,-51,680,429,8152,310,4656,298,5320,477,6368,3,1,?
2017-03-27 15:03:48.542000,650,6760,-59,1208,-958,368,-662,2920,295,952,778,736,-61,6408,66,6792,-4619,5088,-49,680,444,8144,301,4656,389,5320,496,6368,2,1,?
2017-03-27 15:03:48.551000,717,6760,-48,1208,-879,368,-640,2920,318,952,817,736,8,6408,116,6792,-4549,5088,43,680,516,8144,350,4648,468,5320,560,6368,2,2,?
2017-03-27 15:03:48.557000,682,6760,-63,1208,-905,368,-677,2920,349,952,824,736,-15,6408,39,6792,-4566,5088,17,680,484,8144,334,4648,434,5320,522,6368,2,2,?
2017-03-27 15:03:48.565000,632,6760,-63,1208,-983,368,-686,2920,274,952,784,736,-77,6408,-102,6792,-4624,5088,-50,680,424,8144,215,4648,433,5320,468,6368,2,2,?
2017-03-27 15:03:48.573000,721,6760,-50,1208,-912,368,-666,2920,329,952,822,736,-31,6408,-29,6792,-4570,5088,23,680,495,8144,100,4648,526,5320,538,6368,1,1,?
2017-03-27 15:03:48.581000,725,6760,-51,1208,-897,368,-701,2920,358,952,824,736,-24,6408,83,6792,-4532,5088,26,680,503,8144,-5,4648,541,5320,544,6368,1,1,?
2017-03-27 15:03:48.589000,598,6760,-64,1208,-1021,368,-739,2920,193,952,722,736,-107,6408,5,6792,-4579,5088,-98,680,390,8144,-86,4648,469,5320,437,6368,1,1,?
2017-03-27 15:03:48.597000,598,6760,-61,1208,-1031,368,-743,2920,166,952,691,736,-114,6408,-33,6792,-4572,5088,-107,680,382,8144,-90,4648,495,5320,429,6368,0,1,?
2017-03-27 15:03:48.605000,693,6760,-41,1208,-941,368,-713,2920,305,952,757,736,-44,6408,51,6792,-4497,5088,-19,680,471,8144,-41,4648,588,5320,512,6368,0,0,?
2017-03-27 15:03:48.612000,704,6760,-47,1208,-923,368,-688,2920,335,952,781,736,-17,6408,67,6792,-4473,5088,-4,680,502,8144,-10,4648,600,5320,531,6368,0,-1,?
2017-03-27 15:03:48.620000,682,6760,-56,1208,-950,368,-705,2920,332,952,788,736,-32,6408,58,6792,-4505,5088,-36,680,481,8144,-23,4648,576,5320,508,6368,-1,-1,?
2017-03-27 15:03:48.628000,663,6760,-51,1208,-966,368,-734,2920,355,952,789,736,-58,6408,59,6792,-4543,5088,-60,680,447,8144,-38,4648,559,5320,486,6368,-1,-2,?
2017-03-27 15:03:48.636000,654,6760,-50,1208,-957,368,-730,2920,276,952,761,736,-79,6408,19,6792,-4538,5088,-68,680,440,8144,-12,4648,558,5320,474,6368,-2,-3,?
2017-03-27 15:03:48.643000,735,6760,-35,1208,-876,368,-692,2920,276,952,801,736,-28,6408,29,6792,-4442,5088,7,680,532,8144,55,4648,625,5320,545,6368,-2,-4,?
2017-03-27 15:03:48.652000,761,6760,-49,1208,-862,368,-722,2920,385,952,830,736,4,6408,65,6792,-4369,5088,55,680,578,8144,70,4648,656,5320,582,6368,-2,-4,?
2017-03-27 15:03:48.659000,638,6760,-70,1208,-975,368,-790,2920,285,952,751,736,-75,6408,41,6792,-4431,5088,-42,680,469,8144,-9,4648,588,5320,495,6368,-2,-4,?
2017-03-27 15:03:48.670000,598,6760,-52,1208,-1010,368,-773,2920,148,952,736,736,-107,6408,40,6792,-4479,5088,-96,680,422,8144,-42,4648,568,5320,458,6368,-3,-4,?
2017-03-27 15:03:48.675000,696,6760,-39,1208,-926,368,-726,2920,285,952,842,736,-34,6408,85,6792,-4399,5088,-8,680,527,8144,25,4648,648,5320,544,6368,-2,-4,?
2017-03-27 15:03:48.683000,732,6760,-46,1208,-899,368,-738,2920,401,952,877,736,-6,6408,96,6792,-4352,5088,27,680,567,8144,62,4648,684,5320,587,6368,-2,-4,?
2017-03-27 15:03:48.690000,662,6760,-62,1208,-969,368,-777,2920,321,952,834,736,-57,6408,104,6792,-4381,5088,-53,680,495,8144,10,4648,630,5320,520,6368,-2,-4,?
2017-03-27 15:03:48.698000,609,6760,-60,1208,-1022,368,-778,2920,258,952,809,736,-102,6408,59,6792,-4407,5088,-122,680,437,8144,-44,4648,594,5320,458,6368,-1,-3,?
2017-03-27 15:03:48.706000,643,6760,-45,1208,-997,368,-754,2920,247,952,797,736,-85,6408,-15,6792,-4408,5088,-98,680,458,8144,-12,4648,636,5320,484,6368,-1,-3,?
