Timestamp,F3 Value,F3 Quality,FC5 Value,FC5 Quality,F7 Value,F7 Quality,T7 Value,T7 Quality,P7 Value,P7 Quality,O1 Value,O1 Quality,O2 Value,O2 Quality,P8 Value,P8 Quality,T8 Value,T8 Quality,F8 Value,F8 Quality,AF4 Value,AF4 Quality,FC6 Value,FC6 Quality,F4 Value,F4 Quality,AF3 Value,AF3 Quality,X Value,Y Value,Z Value
2017-03-21 14:19:38.685000,612,0,7,0,-576,0,-619,0,111,0,467,0,-247,0,225,0,1492,0,-35,0,392,0,-53,0,1193,0,520,0,2,-1,?
2017-03-21 14:19:38.692000,611,0,8,0,-574,0,-614,0,110,0,466,0,-240,0,241,0,1502,0,-28,0,412,0,-41,0,1205,0,521,0,2,-1,?
2017-03-21 14:19:38.700000,612,0,7,0,-570,0,-608,0,122,0,474,0,-234,0,247,0,1510,0,-30,0,419,0,-45,0,1204,0,521,0,2,-1,?
2017-03-21 14:19:38.708000,609,0,5,0,-571,0,-611,0,115,0,468,0,-237,0,239,0,1504,0,-33,0,404,0,-51,0,1202,0,518,0,2,-1,?
2017-03-21 14:19:38.716000,605,0,6,0,-576,0,-618,0,101,0,462,0,-248,0,232,0,1493,0,-44,0,389,0,-58,0,1196,0,516,0,2,-1,?
2017-03-21 14:19:38.724000,608,0,10,0,-575,0,-618,0,103,0,468,0,-243,0,235,0,1494,0,-38,0,402,0,-50,0,1192,0,521,0,2,-1,?
2017-03-21 14:19:38.732000,611,0,12,0,-577,0,-612,0,110,0,465,0,-223,0,245,0,1506,0,-14,0,422,0,-28,0,1206,0,525,0,2,-1,?
2017-03-21 14:19:38.739000,605,0,8,0,-578,0,-608,0,113,0,464,0,-226,0,245,0,1509,0,-18,0,414,0,-32,0,1210,0,519,0,2,-1,?
2017-03-21 14:19:38.747000,605,0,5,0,-576,0,-610,0,111,0,466,0,-249,0,229,0,1495,0,-42,0,398,0,-59,0,1191,0,513,0,2,-1,?
2017-03-21 14:19:38.755000,610,0,3,0,-576,0,-612,0,110,0,463,0,-265,0,216,0,1484,0,-46,0,392,0,-68,0,1179,0,517,0,2,-1,?
2017-03-21 14:19:38.763000,612,0,2,0,-575,0,-609,0,110,0,464,0,-253,0,227,0,1497,0,-27,0,405,0,-49,0,1194,0,524,0,2,-1,?
2017-03-21 14:19:38.771000,614,0,5,16,-577,0,-611,0,106,0,466,0,-220,0,251,0,1518,0,-11,0,427,0,-27,0,1208,0,525,0,2,-1,?
2017-03-21 14:19:38.778000,614,0,9,16,-576,0,-610,0,107,0,463,0,-217,0,253,0,1517,0,-18,0,419,0,-36,0,1202,0,525,24,2,-1,?
2017-03-21 14:19:38.786000,608,0,7,16,-574,16,-609,0,109,0,462,0,-251,0,225,0,1494,0,-40,0,389,0,-67,0,1189,0,523,24,2,-1,?
2017-03-21 14:19:38.794000,605,0,5,16,-579,16,-611,24,107,0,471,0,-260,0,213,0,1485,0,-43,0,384,0,-68,0,1185,0,520,24,2,-1,?
2017-03-21 14:19:38.802000,609,0,8,16,-582,16,-612,24,112,8,473,0,-235,0,236,0,1506,0,-23,0,406,0,-44,0,1198,0,521,24,2,-1,?
2017-03-21 14:19:38.810000,608,0,9,16,-576,16,-615,24,115,8,465,8,-225,0,254,0,1522,0,-11,0,418,0,-37,0,1211,0,521,24,2,-1,?
2017-03-21 14:19:38.818000,605,0,5,16,-576,16,-615,24,107,8,466,8,-239,16,241,0,1508,0,-28,0,410,0,-52,0,1204,0,519,24,2,-1,?
2017-03-21 14:19:38.825000,605,0,1,16,-580,16,-613,24,105,8,469,8,-256,16,222,8,1491,0,-51,0,393,0,-64,0,1189,0,518,24,2,-1,?
2017-03-21 14:19:38.833000,608,0,5,16,-579,16,-611,24,111,8,464,8,-254,16,226,8,1497,0,-41,0,391,0,-58,0,1193,0,519,24,2,-1,?
2017-03-21 14:19:38.841000,610,0,11,16,-577,16,-611,24,110,8,465,8,-233,16,241,8,1509,0,-16,8,410,0,-45,0,1204,0,524,24,2,-1,?
2017-03-21 14:19:38.849000,609,0,9,16,-574,16,-613,24,110,8,471,8,-231,16,239,8,1503,0,-23,8,413,24,-48,0,1198,0,528,24,2,-1,?
2017-03-21 14:19:38.857000,608,0,3,16,-575,16,-616,24,109,8,461,8,-246,16,226,8,1492,0,-41,8,394,24,-56,8,1190,0,522,24,2,-1,?
2017-03-21 14:19:38.864000,609,0,-2,16,-578,16,-615,24,107,8,460,8,-242,16,232,8,1493,0,-39,8,390,24,-52,8,1190,0,517,24,2,-1,?
2017-03-21 14:19:38.872000,609,0,0,16,-575,16,-611,24,112,8,475,8,-230,16,251,8,1506,0,-25,24,407,24,-44,8,1197,0,522,24,2,-1,?
2017-03-21 14:19:38.880000,612,0,8,16,-574,16,-611,24,110,8,472,8,-232,16,246,8,1513,0,-20,24,414,0,-45,8,1201,0,521,24,2,-1,?
2017-03-21 14:19:38.889000,614,0,10,16,-579,16,-612,24,111,8,466,8,-245,16,221,8,1498,0,-34,24,400,0,-56,8,1194,0,516,24,2,-1,?
2017-03-21 14:19:38.897000,612,0,2,16,-581,16,-612,24,117,8,471,8,-252,16,219,8,1487,0,-40,24,390,0,-62,8,1187,0,517,24,2,-1,?
2017-03-21 14:19:38.904000,610,0,-1,16,-581,16,-613,24,118,8,474,8,-245,16,236,8,1498,0,-31,24,395,0,-52,8,1196,0,523,24,2,-1,?
2017-03-21 14:19:38.912000,613,0,5,16,-581,16,-613,24,115,8,468,8,-227,16,248,8,1516,0,-22,24,404,0,-40,8,1207,0,529,24,2,-1,?
2017-03-21 14:19:38.920000,615,0,5,16,-581,16,-616,24,106,8,459,8,-224,16,247,8,1514,0,-18,24,409,0,-43,8,1204,0,527,24,2,-1,?
2017-03-21 14:19:38.928000,614,0,-1,16,-576,16,-614,24,103,8,465,8,-244,16,226,8,1490,0,-29,24,401,0,-60,8,1195,0,523,24,2,-1,?
2017-03-21 14:19:38.936000,610,0,3,16,-579,16,-609,24,111,8,472,8,-258,16,216,8,1481,0,-39,24,387,0,-66,8,1190,0,521,24,2,-1,?
2017-03-21 14:19:38.944000,608,0,9,16,-582,16,-612,24,116,8,470,8,-250,16,236,8,1501,0,-35,24,393,0,-54,8,1198,0,518,24,2,-1,?
2017-03-21 14:19:38.952000,616,0,8,16,-576,16,-612,24,114,8,470,8,-229,16,255,8,1516,0,-19,24,413,0,-38,8,1207,0,523,24,2,-1,?
2017-03-21 14:19:38.958000,616,0,4,16,-570,16,-610,24,110,8,469,8,-224,16,247,8,1508,0,-19,24,412,0,-42,8,1205,0,529,24,2,-1,?
2017-03-21 14:19:38.967000,609,0,4,16,-571,16,-610,24,112,8,465,8,-248,16,225,8,1488,0,-42,24,386,0,-66,8,1194,0,521,24,2,-1,?
2017-03-21 14:19:38.974000,609,0,5,16,-577,16,-607,24,115,8,461,8,-255,16,224,8,1481,0,-47,24,388,0,-66,8,1189,0,516,24,2,-1,?
2017-03-21 14:19:38.982000,613,0,6,16,-576,16,-611,24,113,8,464,8,-230,16,241,8,1495,0,-19,24,418,0,-40,8,1201,0,524,24,2,-1,?
2017-03-21 14:19:38.991000,608,0,8,16,-572,16,-618,24,110,8,469,8,-224,16,248,8,1507,0,-8,24,416,0,-35,8,1206,0,525,24,2,-1,?
2017-03-21 14:19:38.998000,607,0,9,16,-574,16,-615,24,108,8,467,8,-247,16,231,8,1498,0,-31,24,393,0,-54,8,1195,0,516,24,2,-1,?
2017-03-21 14:19:39.006000,612,0,7,16,-577,16,-613,24,110,8,465,8,-256,16,219,8,1486,0,-41,24,392,0,-59,8,1188,0,516,24,2,-1,?
2017-03-21 14:19:39.014000,613,0,7,16,-577,16,-619,24,111,8,467,8,-242,16,231,8,1493,0,-24,24,408,0,-45,8,1197,0,522,24,2,-1,?
2017-03-21 14:19:39.022000,614,0,6,16,-574,16,-617,24,114,8,470,8,-230,16,242,8,1508,0,-14,24,419,0,-34,8,1206,0,524,24,2,-1,?
2017-03-21 14:19:39.030000,615,0,5,16,-575,16,-611,24,117,8,464,8,-236,16,232,8,1504,0,-28,24,414,0,-42,8,1199,0,524,24,2,-1,?
2017-03-21 14:19:39.038000,610,0,7,16,-579,16,-614,24,111,8,461,8,-248,16,223,8,1490,0,-40,24,397,0,-59,8,1189,0,521,24,2,-1,?
2017-03-21 14:19:39.045000,607,0,11,16,-579,16,-616,24,109,8,465,8,-247,16,230,8,1493,0,-32,24,398,0,-56,8,1193,0,523,24,2,-1,?
2017-03-21 14:19:39.053000,612,0,7,16,-574,16,-610,24,115,8,465,8,-234,16,237,8,1509,0,-22,24,415,0,-41,8,1200,0,529,24,2,-1,?
2017-03-21 14:19:39.061000,611,0,3,16,-575,16,-611,24,115,8,461,8,-230,16,235,8,1510,0,-26,24,415,0,-42,8,1198,0,523,24,2,-1,?
2017-03-21 14:19:39.069000,608,0,6,16,-579,16,-614,24,107,8,463,8,-246,16,230,8,1496,0,-37,24,400,0,-58,8,1189,0,515,24,2,-1,?
2017-03-21 14:19:39.076000,608,0,6,16,-575,16,-611,24,106,8,469,8,-257,16,225,8,1487,0,-43,24,394,0,-66,8,1189,0,522,24,2,-1,?
2017-03-21 14:19:39.084000,610,0,6,16,-572,16,-608,24,115,8,468,8,-243,16,227,8,1496,0,-30,24,400,0,-53,8,1197,0,525,24,2,-1,?
2017-03-21 14:19:39.092000,612,0,8,16,-577,16,-611,24,115,8,467,8,-223,16,243,8,1513,0,-7,24,417,0,-36,8,1202,0,523,24,2,-1,?
2017-03-21 14:19:39.100000,615,0,6,16,-581,16,-612,24,108,8,470,8,-227,16,249,8,1514,0,-10,24,424,0,-37,8,1205,0,523,24,2,-1,?
2017-03-21 14:19:39.108000,609,0,4,16,-575,16,-610,24,107,8,468,8,-246,16,232,8,1495,0,-46,24,400,0,-59,8,1194,0,518,24,2,-1,?
2017-03-21 14:19:39.116000,600,0,6,16,-573,16,-611,24,112,8,465,8,-254,16,220,8,1484,0,-56,24,384,0,-65,8,1182,0,515,24,2,-1,?
2017-03-21 14:19:39.124000,608,0,7,16,-575,16,-613,24,113,8,470,8,-239,16,230,8,1501,0,-24,24,415,0,-45,8,1195,0,526,24,2,-1,?
2017-03-21 14:19:39.131000,618,0,7,16,-572,16,-615,24,112,8,474,8,-218,16,243,8,1516,0,-4,24,438,0,-34,8,1210,0,530,24,2,-1,?
2017-03-21 14:19:39.139000,609,0,8,16,-574,16,-615,24,114,8,470,8,-225,16,239,8,1504,0,-15,24,412,0,-45,8,1198,0,521,24,2,-1,?
2017-03-21 14:19:39.147000,601,0,7,16,-583,16,-612,24,110,8,465,8,-249,16,222,8,1486,0,-39,24,388,0,-63,8,1186,0,520,24,2,-1,?
2017-03-21 14:19:39.155000,610,0,9,16,-581,16,-613,24,108,8,469,8,-246,16,221,8,1493,0,-42,24,400,0,-63,8,1197,0,525,24,2,-1,?
2017-03-21 14:19:39.163000,614,0,8,16,-576,16,-614,24,115,8,470,8,-219,16,240,8,1511,0,-20,24,412,0,-43,8,1205,0,524,24,2,-1,?
2017-03-21 14:19:39.170000,610,0,4,16,-579,16,-613,24,117,8,467,8,-216,16,249,8,1512,0,-11,24,410,0,-31,8,1201,0,521,24,2,-1,?
2017-03-21 14:19:39.178000,609,0,4,16,-577,16,-611,24,111,8,467,8,-242,16,235,8,1497,0,-32,24,403,0,-43,8,1193,0,521,24,2,-1,?
2017-03-21 14:19:39.186000,609,0,3,16,-574,16,-611,24,109,8,466,8,-246,16,224,8,1492,0,-40,24,398,0,-57,8,1190,0,524,24,2,-1,?
2017-03-21 14:19:39.194000,607,0,4,16,-577,16,-612,24,111,8,468,8,-228,16,236,8,1503,0,-22,24,410,0,-50,8,1200,0,530,24,2,-1,?
2017-03-21 14:19:39.202000,607,0,8,16,-578,16,-612,24,110,8,472,8,-226,16,250,8,1510,0,-19,24,417,0,-42,8,1206,0,531,24,2,-1,?
2017-03-21 14:19:39.210000,603,0,6,16,-575,16,-612,24,112,8,472,8,-242,16,238,8,1505,0,-35,24,402,0,-51,8,1200,0,525,24,2,-1,?
2017-03-21 14:19:39.216000,602,0,4,16,-574,16,-613,24,113,8,469,8,-249,16,220,8,1497,0,-41,24,395,0,-62,8,1191,0,522,24,2,-1,?
2017-03-21 14:19:39.224000,614,0,7,16,-578,16,-616,24,112,8,469,8,-239,16,228,8,1500,0,-30,24,407,0,-54,8,1194,0,526,24,2,-1,?
2017-03-21 14:19:39.233000,620,0,6,16,-574,16,-616,24,114,8,469,8,-228,16,245,8,1507,0,-16,24,421,0,-39,8,1207,0,527,24,2,-1,?
2017-03-21 14:19:39.241000,611,0,5,16,-572,16,-614,24,116,8,467,8,-229,16,245,8,1505,0,-17,24,414,0,-42,8,1206,0,525,24,2,-1,?
2017-03-21 14:19:39.249000,607,0,7,16,-583,16,-612,24,113,8,468,8,-245,16,232,8,1494,0,-37,24,393,0,-60,8,1191,0,524,24,2,-1,?
2017-03-21 14:19:39.255000,612,0,7,16,-587,16,-613,24,111,8,470,8,-252,16,223,8,1486,0,-48,24,391,0,-65,8,1186,0,517,24,2,-1,?
2017-03-21 14:19:39.263000,614,16,9,16,-577,16,-615,24,111,8,470,8,-243,16,232,8,1498,0,-31,24,412,0,-49,8,1195,0,512,24,2,-1,?
2017-03-21 14:19:39.272000,617,16,10,8,-573,16,-610,24,113,8,469,8,-228,16,256,8,1519,0,-7,24,429,0,-30,8,1206,0,526,24,2,-1,?
2017-03-21 14:19:39.280000,617,16,7,8,-574,16,-606,24,114,8,471,8,-226,16,261,8,1514,0,-15,24,424,0,-36,8,1204,0,536,24,2,-1,?
2017-03-21 14:19:39.287000,610,16,4,8,-578,0,-611,24,110,8,468,8,-248,16,229,8,1486,0,-45,24,400,0,-61,8,1190,0,522,24,2,-1,?
2017-03-21 14:19:39.296000,609,16,5,8,-579,0,-613,16,109,8,462,8,-261,16,211,8,1481,0,-48,24,393,0,-67,8,1185,0,511,24,2,-1,?
2017-03-21 14:19:39.302000,612,16,7,8,-577,0,-611,16,114,24,467,8,-241,16,238,8,1508,0,-22,24,416,0,-50,8,1197,0,520,24,2,-1,?
2017-03-21 14:19:39.311000,614,16,8,8,-579,0,-611,16,115,24,472,0,-220,16,256,8,1521,0,-14,24,423,0,-35,8,1204,0,520,24,2,-1,?
2017-03-21 14:19:39.318000,613,16,8,8,-578,0,-612,16,113,24,468,0,-235,0,235,8,1500,0,-31,24,406,0,-44,8,1197,0,518,24,2,-1,?
2017-03-21 14:19:39.326000,610,16,4,8,-574,0,-615,16,110,24,465,0,-253,0,223,8,1484,0,-39,24,389,0,-62,8,1188,0,525,24,2,-1,?
2017-03-21 14:19:39.335000,606,16,2,8,-577,0,-618,16,109,24,465,0,-248,0,234,8,1498,8,-33,24,393,0,-60,8,1190,0,525,24,2,-1,?
2017-03-21 14:19:39.341000,610,16,7,8,-578,0,-613,16,113,24,466,0,-236,0,243,8,1512,8,-21,16,416,0,-45,8,1199,0,524,24,2,-1,?
2017-03-21 14:19:39.350000,616,16,11,8,-578,0,-608,16,110,24,460,0,-233,0,244,8,1505,8,-24,16,412,0,-48,8,1198,0,524,24,2,-1,?
2017-03-21 14:19:39.358000,611,16,9,8,-583,0,-613,16,105,24,461,0,-244,0,230,8,1493,8,-44,16,392,0,-58,8,1189,0,522,24,2,-1,?
2017-03-21 14:19:39.365000,605,16,5,8,-582,0,-616,16,111,24,468,0,-246,0,228,8,1499,8,-42,16,401,0,-46,8,1190,0,520,24,2,-1,?
2017-03-21 14:19:39.373000,607,16,3,8,-581,0,-612,16,115,24,467,0,-231,0,246,8,1512,8,-24,24,418,0,-37,8,1204,0,523,24,2,-1,?
2017-03-21 14:19:39.381000,610,16,0,8,-583,0,-611,16,110,24,467,0,-227,0,248,8,1509,8,-23,24,414,24,-47,8,1212,0,526,24,2,-1,?
2017-03-21 14:19:39.388000,610,16,1,8,-581,0,-613,16,112,24,469,0,-247,0,226,8,1494,8,-37,24,401,24,-58,8,1194,0,523,24,2,-1,?
2017-03-21 14:19:39.396000,608,16,6,8,-581,0,-615,16,116,24,463,0,-257,0,215,8,1487,8,-42,24,396,24,-59,8,1187,0,521,24,2,-1,?
2017-03-21 14:19:39.404000,609,16,7,8,-580,0,-617,16,114,24,462,0,-241,0,235,8,1495,8,-30,24,404,24,-50,8,1206,0,519,24,2,-1,?
2017-03-21 14:19:39.413000,610,16,6,8,-572,0,-616,16,115,24,471,0,-225,0,254,8,1512,8,-13,24,422,24,-34,8,1213,0,521,24,2,-1,?
2017-03-21 14:19:39.420000,610,16,5,8,-570,0,-609,16,114,24,471,0,-228,0,249,8,1513,8,-17,24,411,24,-38,8,1197,0,526,24,2,-1,?
2017-03-21 14:19:39.429000,608,16,4,8,-577,0,-608,16,109,24,465,0,-240,0,228,8,1491,8,-38,24,390,24,-65,8,1191,0,526,24,2,-1,?
2017-03-21 14:19:39.435000,605,16,7,8,-580,0,-616,16,108,24,468,0,-250,0,213,8,1479,8,-44,24,393,24,-71,8,1192,0,521,24,2,-1,?
2017-03-21 14:19:39.443000,609,16,7,8,-580,0,-617,16,111,24,468,0,-242,0,231,8,1496,8,-32,24,406,24,-49,8,1192,0,520,24,2,-1,?
2017-03-21 14:19:39.451000,617,16,6,8,-582,0,-612,16,112,24,466,0,-221,0,258,8,1517,8,-19,24,419,24,-33,8,1203,0,528,24,2,-1,?
2017-03-21 14:19:39.459000,614,16,7,8,-577,0,-614,16,110,24,470,0,-221,0,252,8,1514,8,-25,24,417,24,-44,8,1205,0,528,24,2,-1,?
2017-03-21 14:19:39.468000,604,16,3,8,-577,0,-616,16,110,24,467,0,-244,0,224,8,1488,8,-43,24,390,24,-62,8,1186,0,520,24,2,-1,?
2017-03-21 14:19:39.475000,611,16,1,8,-585,0,-614,16,111,24,459,0,-253,0,220,8,1477,8,-44,24,388,24,-60,8,1187,0,520,24,2,-1,?
2017-03-21 14:19:39.483000,617,16,7,8,-579,0,-616,16,114,24,468,0,-237,0,242,8,1500,8,-21,24,418,24,-41,8,1205,0,528,24,2,-1,?
2017-03-21 14:19:39.491000,611,16,9,8,-574,0,-615,16,114,24,474,0,-230,0,252,8,1515,8,-14,24,418,24,-40,8,1205,0,525,24,2,-1,?
2017-03-21 14:19:39.498000,607,16,5,8,-575,0,-612,16,110,24,464,0,-244,0,237,8,1499,8,-34,24,393,24,-60,8,1190,0,519,24,2,-1,?
2017-03-21 14:19:39.506000,610,16,2,8,-576,0,-614,16,107,24,460,0,-249,0,226,8,1494,8,-39,24,389,24,-65,8,1186,0,520,24,2,-1,?
2017-03-21 14:19:39.514000,612,16,6,8,-577,0,-615,16,109,24,462,0,-243,0,235,8,1506,8,-26,24,402,24,-51,8,1194,0,523,24,2,-1,?
2017-03-21 14:19:39.521000,610,16,8,8,-578,0,-613,16,113,24,463,0,-241,0,244,8,1507,8,-18,24,412,24,-42,8,1200,0,525,24,2,-1,?
2017-03-21 14:19:39.529000,612,16,3,8,-581,0,-614,16,110,24,463,0,-243,0,239,8,1495,8,-29,24,404,24,-50,8,1196,0,523,24,2,-1,?
2017-03-21 14:19:39.538000,615,16,1,8,-580,0,-617,16,106,24,466,0,-250,0,223,8,1485,8,-44,24,395,24,-62,8,1194,0,522,24,2,-1,?
2017-03-21 14:19:39.546000,607,16,5,8,-573,0,-612,16,109,24,466,0,-244,0,232,8,1496,8,-34,24,399,24,-56,8,1200,0,522,24,2,-1,?
2017-03-21 14:19:39.553000,602,16,7,8,-572,0,-611,16,113,24,468,0,-230,0,255,8,1514,8,-15,24,410,24,-41,8,1206,0,525,24,2,-1,?
2017-03-21 14:19:39.560000,610,16,6,8,-579,0,-615,16,116,24,474,0,-236,0,247,8,1510,8,-18,24,415,24,-44,8,1200,0,526,24,2,-1,?
2017-03-21 14:19:39.568000,612,16,3,8,-584,0,-613,16,116,24,468,0,-246,0,222,8,1493,8,-34,24,404,24,-59,8,1188,0,523,24,2,-1,?
2017-03-21 14:19:39.576000,605,16,4,8,-579,0,-613,16,114,24,460,0,-251,0,218,8,1486,8,-41,24,393,24,-63,8,1186,0,525,24,2,-1,?
2017-03-21 14:19:39.584000,608,16,5,8,-577,0,-615,16,113,24,464,0,-244,0,235,8,1496,8,-31,24,402,24,-49,8,1195,0,524,24,2,-1,?
2017-03-21 14:19:39.592000,618,16,6,8,-579,0,-614,16,112,24,468,0,-226,0,254,8,1518,8,-14,24,421,24,-38,8,1204,0,519,24,2,-1,?
2017-03-21 14:19:39.601000,624,16,5,8,-572,0,-616,16,112,24,464,0,-228,0,252,8,1521,8,-11,24,418,24,-41,8,1201,0,520,24,2,-1,?
2017-03-21 14:19:39.608000,616,16,5,8,-570,0,-616,16,111,24,465,0,-249,0,231,8,1493,8,-33,24,389,24,-55,8,1188,0,521,24,2,-1,?
2017-03-21 14:19:39.615000,608,16,7,8,-577,0,-615,16,113,24,466,0,-257,0,222,8,1478,8,-47,24,385,24,-64,8,1186,0,521,24,2,-1,?
2017-03-21 14:19:39.623000,610,16,8,8,-581,0,-615,16,116,24,466,0,-243,0,236,8,1499,8,-27,24,412,24,-55,8,1199,0,523,24,2,-1,?
2017-03-21 14:19:39.632000,614,16,9,8,-577,0,-612,16,116,24,470,0,-231,0,250,8,1516,8,-8,24,421,24,-38,8,1206,0,525,24,2,-1,?
2017-03-21 14:19:39.640000,608,16,5,8,-572,0,-613,16,113,24,470,0,-238,0,240,8,1503,8,-29,24,402,24,-44,8,1195,0,524,24,2,-1,?
2017-03-21 14:19:39.647000,606,16,-1,8,-579,0,-620,16,110,24,467,0,-255,0,219,8,1483,8,-56,24,387,24,-63,8,1185,0,521,24,2,-1,?
2017-03-21 14:19:39.654000,612,16,2,8,-583,0,-616,16,109,24,465,0,-252,0,221,8,1491,8,-37,24,397,24,-59,8,1196,0,516,24,2,-1,?
2017-03-21 14:19:39.663000,616,16,4,8,-577,0,-605,16,112,24,466,0,-228,0,243,8,1514,8,-8,24,418,24,-40,8,1208,0,520,24,2,-1,?
2017-03-21 14:19:39.671000,617,16,5,8,-574,0,-610,16,112,24,467,0,-228,0,245,8,1509,8,-17,24,418,24,-39,8,1204,0,529,24,2,-1,?
2017-03-21 14:19:39.679000,610,16,5,8,-580,0,-618,16,108,24,466,0,-251,0,226,8,1486,8,-40,24,400,24,-56,8,1190,0,528,24,2,-1,?
2017-03-21 14:19:39.687000,607,16,6,8,-583,0,-617,16,109,24,462,0,-248,0,225,8,1491,8,-37,24,395,24,-60,8,1189,0,520,24,2,-1,?
2017-03-21 14:19:39.694000,612,16,4,8,-578,0,-616,16,113,24,465,0,-232,0,236,8,1505,8,-23,24,413,24,-47,8,1204,0,521,24,2,-1,?
2017-03-21 14:19:39.702000,613,16,5,8,-576,0,-611,16,115,24,468,0,-241,0,234,8,1500,8,-23,24,420,24,-40,8,1205,0,528,24,2,-1,?
2017-03-21 14:19:39.709000,610,16,7,8,-581,0,-609,16,109,24,467,0,-252,0,227,8,1492,8,-33,24,402,24,-47,8,1193,0,522,24,2,-1,?
2017-03-21 14:19:39.717000,609,16,7,8,-578,0,-614,16,109,24,472,0,-249,0,223,8,1492,8,-43,24,388,24,-57,8,1193,0,515,24,2,-1,?
2017-03-21 14:19:39.726000,610,16,7,8,-574,0,-615,16,116,24,470,0,-242,0,232,8,1502,8,-36,24,396,24,-57,8,1199,0,520,24,2,-1,?
2017-03-21 14:19:39.732000,616,16,6,8,-572,0,-612,16,114,24,464,0,-233,0,246,8,1515,8,-16,24,415,24,-44,8,1199,0,528,24,2,-1,?
2017-03-21 14:19:39.740000,616,16,5,8,-572,0,-611,16,109,24,469,0,-236,0,245,8,1512,8,-18,24,415,24,-40,8,1197,0,528,24,2,-1,?
2017-03-21 14:19:39.749000,608,16,6,8,-576,0,-612,16,111,24,468,0,-249,0,230,8,1495,8,-37,24,397,24,-55,8,1189,0,524,24,2,-1,?
2017-03-21 14:19:39.757000,607,16,8,8,-578,0,-614,16,112,24,462,0,-253,0,218,8,1484,8,-44,24,390,24,-65,8,1183,0,520,24,2,-1,?
2017-03-21 14:19:39.764000,613,16,11,8,-575,0,-615,16,109,24,463,0,-238,0,229,8,1494,8,-29,24,401,24,-52,8,1189,0,522,24,2,-1,?
2017-03-21 14:19:39.772000,612,0,8,8,-573,0,-611,16,109,24,468,0,-227,0,249,8,1516,8,-12,24,416,24,-36,8,1202,0,532,24,2,-1,?
2017-03-21 14:19:39.780000,609,0,3,0,-574,0,-610,16,110,24,468,0,-235,0,244,8,1512,8,-13,24,418,24,-34,8,1204,0,532,24,2,-1,?
2017-03-21 14:19:39.788000,609,0,3,0,-581,0,-613,16,106,24,466,0,-248,0,224,8,1490,8,-36,24,399,24,-49,8,1191,0,517,16,2,-1,?
2017-03-21 14:19:39.796000,611,0,6,0,-584,8,-614,16,104,24,465,0,-252,0,223,8,1488,8,-49,24,388,24,-60,8,1188,0,512,16,2,-1,?
2017-03-21 14:19:39.803000,612,0,6,0,-578,8,-610,0,107,24,464,0,-236,0,245,8,1503,8,-26,24,409,24,-45,8,1198,0,519,16,2,-1,?
2017-03-21 14:19:39.812000,614,0,3,0,-577,8,-608,0,113,16,466,0,-228,0,255,8,1508,8,-11,24,424,24,-30,8,1207,0,525,16,2,-1,?
2017-03-21 14:19:39.819000,612,0,3,0,-582,8,-611,0,114,16,469,8,-246,0,234,8,1498,8,-28,24,407,24,-48,8,1202,0,522,16,2,-1,?
2017-03-21 14:19:39.827000,608,0,5,0,-582,8,-612,0,107,16,465,8,-257,8,217,8,1487,8,-44,24,388,24,-68,8,1187,0,514,16,2,-1,?
2017-03-21 14:19:39.835000,607,0,4,0,-576,8,-611,0,109,16,464,8,-248,8,229,0,1494,8,-36,24,398,24,-56,8,1191,0,510,16,2,-1,?
2017-03-21 14:19:39.843000,612,0,3,0,-575,8,-609,0,115,16,468,8,-232,8,247,0,1509,0,-18,24,418,24,-38,8,1206,0,518,16,2,-1,?
2017-03-21 14:19:39.851000,610,0,9,0,-578,8,-608,0,110,16,470,8,-231,8,244,0,1506,0,-19,16,415,24,-43,8,1203,0,526,16,2,-1,?
2017-03-21 14:19:39.859000,609,0,11,0,-576,8,-612,0,103,16,468,8,-250,8,227,0,1495,0,-36,16,400,0,-59,8,1190,0,529,16,2,-1,?
2017-03-21 14:19:39.865000,611,0,7,0,-575,8,-616,0,111,16,468,8,-251,8,227,0,1500,0,-33,16,402,0,-57,0,1193,0,529,16,2,-1,?
2017-03-21 14:19:39.873000,611,0,7,0,-578,8,-614,0,117,16,468,8,-228,8,243,0,1512,0,-13,16,417,0,-39,0,1204,0,528,16,2,-1,?
2017-03-21 14:19:39.881000,611,0,10,0,-581,8,-612,0,114,16,467,8,-226,8,246,0,1508,0,-16,24,416,0,-34,0,1205,0,528,16,2,-1,?
2017-03-21 14:19:39.889000,608,0,9,0,-580,8,-611,0,112,16,467,8,-245,8,237,0,1496,0,-36,24,399,24,-50,0,1195,0,526,16,2,-1,?
2017-03-21 14:19:39.897000,604,0,7,0,-577,8,-613,0,109,16,463,8,-249,8,227,0,1490,0,-48,24,389,24,-63,0,1188,0,518,16,2,-1,?
2017-03-21 14:19:39.905000,610,0,3,0,-578,8,-613,0,107,16,464,8,-239,8,230,0,1495,0,-34,24,399,24,-58,0,1194,0,520,16,2,-1,?
2017-03-21 14:19:39.913000,617,0,0,0,-577,8,-609,0,111,16,472,8,-230,8,247,0,1507,0,-6,24,421,24,-38,0,1208,0,530,16,2,-1,?
2017-03-21 14:19:39.920000,615,0,5,0,-574,8,-609,0,110,16,473,8,-231,8,250,0,1508,0,-13,24,421,24,-33,0,1208,0,530,16,2,-1,?
2017-03-21 14:19:39.928000,609,0,7,0,-579,8,-611,0,106,16,465,8,-246,8,234,0,1495,0,-48,24,393,24,-55,0,1190,0,519,16,2,-1,?
2017-03-21 14:19:39.936000,606,0,4,0,-581,8,-616,0,109,16,467,8,-258,8,221,0,1486,0,-53,24,386,24,-68,0,1184,0,519,16,2,-1,?
2017-03-21 14:19:39.944000,610,0,3,0,-577,8,-616,0,114,16,470,8,-243,8,233,0,1499,0,-22,24,409,24,-51,0,1196,0,526,16,2,-1,?
2017-03-21 14:19:39.952000,620,0,5,0,-577,8,-609,0,114,16,470,8,-224,8,250,0,1514,0,-7,24,424,24,-31,0,1210,0,526,16,2,-1,?
2017-03-21 14:19:39.959000,620,0,4,0,-576,8,-610,0,110,16,473,8,-232,8,244,0,1502,0,-26,24,414,24,-41,0,1206,0,526,16,2,-1,?
2017-03-21 14:19:39.967000,612,0,2,0,-576,8,-618,0,105,16,469,8,-250,8,221,0,1485,0,-45,24,396,24,-60,0,1188,0,524,16,2,-1,?
2017-03-21 14:19:39.975000,609,0,5,0,-581,8,-617,0,107,16,468,8,-253,8,223,0,1492,0,-35,24,401,24,-61,0,1187,0,521,16,2,-1,?
2017-03-21 14:19:39.983000,608,0,8,0,-582,8,-607,0,116,16,472,8,-236,8,247,0,1516,0,-17,24,418,24,-46,0,1204,0,525,16,2,-1,?
2017-03-21 14:19:39.991000,610,0,4,0,-578,8,-607,0,114,16,468,8,-226,8,247,0,1520,0,-25,24,417,24,-42,0,1210,0,523,16,2,-1,?
2017-03-21 14:19:39.998000,614,0,2,0,-579,8,-615,0,107,16,464,8,-241,8,224,0,1498,0,-44,24,404,24,-50,0,1199,0,520,16,2,-1,?
2017-03-21 14:19:40.007000,611,0,2,0,-579,8,-616,0,106,16,463,8,-249,8,221,0,1487,0,-42,24,399,24,-51,0,1192,0,520,16,2,-1,?
2017-03-21 14:19:40.015000,609,0,0,0,-574,8,-611,0,107,16,463,8,-239,8,237,0,1499,0,-25,24,407,24,-48,0,1201,0,521,16,2,-1,?
2017-03-21 14:19:40.023000,614,0,2,0,-576,8,-608,0,110,16,468,8,-231,8,248,0,1510,0,-20,24,413,24,-47,0,1207,0,519,16,2,-1,?
2017-03-21 14:19:40.031000,616,0,4,0,-577,8,-611,0,112,16,469,8,-239,8,244,0,1499,0,-36,24,404,24,-50,0,1194,0,518,16,2,-1,?
2017-03-21 14:19:40.038000,607,0,4,0,-577,8,-615,0,109,16,465,8,-255,8,229,0,1484,0,-48,24,396,24,-61,0,1183,0,521,16,2,-1,?
2017-03-21 14:19:40.046000,606,0,7,0,-580,8,-615,0,107,16,462,8,-250,8,229,0,1494,0,-33,24,402,24,-59,0,1193,0,521,16,2,-1,?
2017-03-21 14:19:40.054000,616,0,7,0,-580,8,-616,0,115,16,463,8,-231,8,248,0,1513,0,-13,24,416,24,-38,0,1207,0,522,16,2,-1,?
2017-03-21 14:19:40.062000,618,0,6,0,-578,8,-614,0,117,16,468,8,-231,8,249,0,1510,0,-22,24,414,24,-39,0,1202,0,521,16,2,-1,?
2017-03-21 14:19:40.069000,610,0,10,0,-580,8,-612,0,108,16,472,8,-246,8,229,0,1493,0,-45,24,394,24,-62,0,1187,0,518,16,2,-1,?
2017-03-21 14:19:40.078000,608,0,7,0,-577,8,-616,0,107,16,473,8,-257,8,218,0,1485,0,-51,24,388,24,-68,0,1183,0,520,16,2,-1,?
2017-03-21 14:19:40.085000,614,0,1,0,-573,8,-618,0,112,16,469,8,-250,8,229,0,1496,0,-30,24,406,24,-53,0,1194,0,522,16,2,-1,?
2017-03-21 14:19:40.093000,619,0,9,0,-576,8,-612,0,112,16,467,8,-229,8,248,0,1516,0,-8,24,428,24,-34,0,1209,0,522,16,2,-1,?
2017-03-21 14:19:40.101000,612,0,10,0,-579,8,-609,0,110,16,470,8,-224,8,248,0,1517,0,-16,24,421,24,-34,0,1210,0,522,16,2,-1,?
2017-03-21 14:19:40.108000,605,0,-1,0,-578,8,-616,0,111,16,467,8,-248,8,229,0,1496,0,-40,24,396,24,-55,0,1196,0,523,16,2,-1,?
2017-03-21 14:19:40.116000,609,0,0,0,-576,8,-618,0,109,16,462,8,-263,8,217,0,1485,0,-45,24,391,24,-68,0,1192,0,522,16,2,-1,?
2017-03-21 14:19:40.124000,614,0,10,0,-576,8,-612,0,106,16,462,8,-240,8,237,0,1504,0,-25,24,409,24,-48,0,1200,0,518,16,2,-1,?
2017-03-21 14:19:40.131000,610,0,9,0,-577,8,-611,0,109,16,465,8,-224,8,259,0,1517,0,-12,24,420,24,-31,0,1203,0,517,16,2,-1,?
2017-03-21 14:19:40.139000,605,0,2,0,-576,8,-612,0,113,16,467,8,-237,8,244,0,1500,0,-30,24,405,24,-44,0,1196,0,518,16,2,-1,?
2017-03-21 14:19:40.147000,604,0,0,0,-576,8,-614,0,110,16,466,8,-252,8,220,0,1487,0,-48,24,382,24,-58,0,1188,0,518,16,2,-1,?
2017-03-21 14:19:40.155000,608,0,3,0,-573,8,-614,0,111,16,466,8,-250,8,225,0,1499,0,-36,24,392,24,-54,0,1191,0,520,16,2,-1,?
2017-03-21 14:19:40.163000,612,0,6,0,-573,8,-612,0,114,16,470,8,-237,8,243,0,1509,0,-20,24,416,24,-44,0,1201,0,520,16,2,-1,?
2017-03-21 14:19:40.171000,610,0,3,0,-578,8,-613,0,110,16,469,8,-234,8,243,0,1502,0,-28,24,411,24,-47,0,1199,0,520,16,2,-1,?
2017-03-21 14:19:40.179000,606,0,4,0,-578,8,-616,0,107,16,466,8,-245,8,225,0,1494,0,-38,24,393,24,-56,0,1195,0,521,16,2,-1,?
2017-03-21 14:19:40.186000,607,0,8,0,-578,8,-614,0,111,16,466,8,-241,8,232,0,1500,0,-34,24,396,24,-53,0,1195,0,520,16,2,-1,?
2017-03-21 14:19:40.195000,610,0,7,0,-579,8,-613,0,113,16,469,8,-226,8,248,0,1514,0,-27,24,412,24,-45,0,1201,0,521,16,2,-1,?
2017-03-21 14:19:40.202000,611,0,4,0,-577,8,-614,0,110,16,472,8,-233,8,241,0,1513,0,-25,24,410,24,-48,0,1202,0,521,16,2,-1,?
2017-03-21 14:19:40.211000,610,0,6,0,-578,8,-613,0,109,16,468,8,-249,8,227,0,1496,0,-33,24,393,24,-55,0,1191,0,519,16,2,-1,?
2017-03-21 14:19:40.218000,609,0,8,0,-574,8,-614,0,108,16,464,8,-253,8,218,0,1485,0,-39,24,394,24,-59,0,1188,0,519,16,2,-1,?
2017-03-21 14:19:40.226000,611,0,5,0,-573,8,-614,0,109,16,463,8,-241,8,227,0,1499,0,-28,24,410,24,-52,0,1195,0,522,16,2,-1,?
2017-03-21 14:19:40.234000,615,0,4,0,-577,8,-612,0,110,16,465,8,-227,8,248,0,1518,0,-12,24,418,24,-37,0,1204,0,526,16,2,-1,?
2017-03-21 14:19:40.242000,614,0,8,0,-577,8,-613,0,107,16,469,8,-234,8,252,0,1512,0,-20,24,414,24,-37,0,1202,0,526,16,2,-1,?
2017-03-21 14:19:40.250000,608,0,6,0,-579,8,-620,0,105,16,470,8,-248,8,232,0,1487,0,-36,24,400,24,-55,0,1192,0,520,16,2,-1,?
2017-03-21 14:19:40.257000,605,0,1,0,-582,8,-619,0,107,16,462,8,-254,8,218,0,1476,0,-40,24,388,24,-63,0,1190,0,518,16,2,-1,?
2017-03-21 14:19:40.265000,610,0,6,0,-575,8,-611,0,113,16,460,8,-244,8,234,0,1502,0,-29,24,398,24,-52,0,1198,0,522,16,2,-1,?
2017-03-21 14:19:40.273000,614,24,15,0,-574,8,-609,0,114,16,467,8,-226,8,256,0,1530,0,-14,24,421,24,-36,0,1209,0,529,16,2,-1,?
2017-03-21 14:19:40.280000,614,24,10,8,-584,8,-613,0,106,16,465,8,-231,8,249,0,1515,0,-22,24,417,24,-40,0,1207,0,526,16,2,-1,?
2017-03-21 14:19:40.288000,611,24,1,8,-582,8,-612,0,105,16,462,8,-257,8,226,0,1483,0,-43,24,386,24,-61,0,1193,0,519,16,2,-1,?
2017-03-21 14:19:40.296000,609,24,2,8,-575,8,-613,0,113,16,465,8,-257,8,224,0,1485,0,-41,24,387,24,-63,0,1185,0,522,16,2,-1,?
2017-03-21 14:19:40.304000,613,24,4,8,-574,8,-615,8,113,16,469,8,-233,8,241,0,1511,0,-18,24,417,24,-44,0,1196,0,524,16,2,-1,?
2017-03-21 14:19:40.312000,615,24,8,8,-571,8,-610,8,112,16,470,8,-233,8,247,0,1512,0,-15,24,417,24,-42,0,1203,0,518,16,2,-1,?
2017-03-21 14:19:40.320000,612,24,11,8,-573,8,-611,8,118,16,468,0,-249,8,237,0,1493,0,-38,24,393,24,-60,0,1190,0,517,16,2,-1,?
2017-03-21 14:19:40.327000,605,24,7,8,-577,8,-621,8,115,16,467,0,-253,24,226,0,1491,0,-48,24,387,24,-67,0,1182,0,523,16,2,-1,?
2017-03-21 14:19:40.335000,609,24,4,8,-577,8,-619,8,111,16,465,0,-242,24,226,8,1504,0,-30,24,402,24,-54,0,1193,0,527,16,2,-1,?
2017-03-21 14:19:40.343000,620,24,5,8,-576,8,-611,8,118,16,468,0,-231,24,239,8,1507,0,-15,24,414,24,-42,0,1205,0,523,16,2,-1,?
2017-03-21 14:19:40.351000,616,24,5,8,-575,8,-617,8,117,16,473,0,-236,24,239,8,1497,0,-26,8,409,24,-48,0,1197,0,525,16,2,-1,?
2017-03-21 14:19:40.359000,608,24,6,8,-576,8,-618,8,109,16,466,0,-245,24,229,8,1490,0,-39,8,393,16,-58,0,1187,0,519,16,2,-1,?
2017-03-21 14:19:40.366000,612,24,12,8,-577,8,-613,8,113,16,462,0,-245,24,233,8,1495,0,-35,8,399,16,-55,16,1195,0,514,16,2,-1,?
2017-03-21 14:19:40.374000,614,24,9,8,-574,8,-615,8,118,16,473,0,-236,24,244,8,1512,0,-12,8,422,16,-39,16,1204,8,529,16,2,-1,?
2017-03-21 14:19:40.382000,608,24,3,8,-578,8,-614,8,113,16,470,0,-227,24,242,8,1512,0,-13,16,413,16,-34,16,1200,8,525,16,2,-1,?
2017-03-21 14:19:40.389000,604,24,2,8,-575,8,-613,8,111,16,461,0,-242,24,228,8,1494,0,-35,16,395,8,-52,16,1191,8,516,16,2,-1,?
2017-03-21 14:19:40.397000,607,24,7,8,-573,8,-619,8,109,16,463,0,-254,24,226,8,1490,0,-44,16,392,8,-66,24,1189,8,523,16,2,-1,?
2017-03-21 14:19:40.406000,609,24,10,8,-578,8,-618,8,105,16,466,0,-238,24,237,8,1500,0,-35,16,395,8,-54,24,1191,8,524,16,2,-1,?
2017-03-21 14:19:40.414000,611,24,8,8,-573,8,-612,8,114,16,472,0,-226,24,246,8,1511,0,-14,16,417,8,-36,24,1198,8,523,16,2,-1,?
2017-03-21 14:19:40.421000,615,24,9,8,-571,8,-614,8,117,16,471,0,-233,24,243,8,1512,0,-9,16,421,8,-39,24,1205,8,523,16,2,-1,?
2017-03-21 14:19:40.429000,611,24,10,8,-577,8,-615,8,108,16,465,0,-245,24,230,8,1496,0,-33,16,391,8,-61,24,1197,8,519,16,2,-1,?
2017-03-21 14:19:40.437000,605,24,7,8,-578,8,-612,8,104,16,466,0,-252,24,221,8,1486,0,-45,16,381,8,-67,24,1191,8,520,16,2,-1,?
2017-03-21 14:19:40.445000,610,24,6,8,-577,8,-610,8,110,16,469,0,-242,24,232,8,1501,0,-23,16,412,8,-44,24,1198,8,523,16,2,-1,?
2017-03-21 14:19:40.453000,612,24,6,8,-574,8,-610,8,113,16,469,0,-227,24,249,8,1518,0,-8,16,428,8,-33,24,1204,8,525,16,2,-1,?
2017-03-21 14:19:40.461000,610,24,4,8,-572,8,-612,8,113,16,468,0,-236,24,240,8,1507,0,-20,16,407,8,-50,24,1199,8,525,16,2,-1,?
2017-03-21 14:19:40.468000,609,24,3,8,-577,8,-611,8,110,16,465,0,-251,24,224,8,1483,0,-40,16,385,8,-63,24,1188,8,519,16,2,-1,?
2017-03-21 14:19:40.475000,607,24,7,8,-578,8,-612,8,110,16,467,0,-247,24,228,8,1483,0,-39,16,398,8,-58,24,1191,8,515,16,2,-1,?
2017-03-21 14:19:40.483000,608,24,7,8,-576,8,-615,8,115,16,471,0,-231,24,244,8,1506,0,-17,16,421,8,-44,24,1201,8,525,16,2,-1,?
2017-03-21 14:19:40.492000,615,24,5,8,-585,8,-611,8,113,16,464,0,-229,24,246,8,1510,0,-12,16,414,8,-40,24,1200,8,524,16,2,-1,?
2017-03-21 14:19:40.499000,613,24,5,8,-576,8,-614,8,110,16,465,0,-250,24,225,8,1492,0,-35,16,401,8,-56,24,1192,8,526,16,2,-1,?
2017-03-21 14:19:40.508000,605,24,5,8,-569,8,-618,8,115,16,466,0,-246,24,225,8,1498,0,-36,16,397,8,-56,24,1190,8,529,16,2,-1,?
2017-03-21 14:19:40.514000,608,24,9,8,-578,8,-614,8,114,16,462,0,-227,24,240,8,1509,0,-19,16,406,8,-42,24,1196,8,518,16,2,-1,?
2017-03-21 14:19:40.523000,611,24,13,8,-576,8,-610,8,109,16,470,0,-234,24,236,8,1503,0,-17,16,422,8,-43,24,1202,8,521,16,2,-1,?
2017-03-21 14:19:40.530000,606,24,8,8,-576,8,-610,8,107,16,470,0,-242,24,233,8,1497,0,-32,16,410,8,-50,24,1199,8,524,16,2,-1,?
2017-03-21 14:19:40.538000,606,24,8,8,-578,8,-613,8,108,16,463,0,-249,24,228,8,1487,0,-46,16,391,8,-56,24,1192,8,518,16,2,-1,?
2017-03-21 14:19:40.546000,611,24,9,8,-577,8,-612,8,114,16,463,0,-241,24,232,8,1493,0,-33,16,395,8,-56,24,1192,8,520,16,2,-1,?
2017-03-21 14:19:40.555000,617,24,6,8,-576,8,-610,8,115,16,466,0,-228,24,245,8,1512,0,-11,16,415,8,-43,24,1206,8,525,16,2,-1,?
2017-03-21 14:19:40.562000,618,24,6,8,-573,8,-614,8,113,16,467,0,-233,24,243,8,1510,0,-17,16,422,8,-37,24,1208,8,527,16,2,-1,?
2017-03-21 14:19:40.570000,615,24,8,8,-579,8,-615,8,110,16,468,0,-243,24,231,8,1494,0,-37,16,400,8,-48,24,1193,8,520,16,2,-1,?
2017-03-21 14:19:40.578000,613,24,6,8,-579,8,-616,8,109,16,469,0,-251,24,222,8,1483,0,-50,16,385,8,-62,24,1186,8,521,16,2,-1,?
2017-03-21 14:19:40.585000,612,24,2,8,-576,8,-615,8,114,16,472,0,-244,24,229,8,1490,0,-37,16,400,8,-58,24,1191,8,532,16,2,-1,?
2017-03-21 14:19:40.593000,615,24,2,8,-579,8,-612,8,114,16,471,0,-227,24,246,8,1511,0,-14,16,421,8,-36,24,1207,8,531,16,2,-1,?
2017-03-21 14:19:40.601000,612,24,5,8,-577,8,-612,8,110,16,465,0,-233,24,243,8,1511,0,-12,16,419,8,-33,24,1213,8,523,16,2,-1,?
2017-03-21 14:19:40.608000,605,24,6,8,-575,8,-615,8,112,16,462,0,-255,24,221,8,1491,0,-37,16,395,8,-58,24,1196,8,521,16,2,-1,?
2017-03-21 14:19:40.617000,607,24,4,8,-582,8,-614,8,118,16,466,0,-254,24,218,8,1486,0,-45,16,388,8,-68,24,1188,8,522,16,2,-1,?
2017-03-21 14:19:40.624000,616,24,3,8,-586,8,-610,8,116,16,467,0,-225,24,244,8,1510,0,-20,16,413,8,-47,24,1199,8,524,16,2,-1,?
2017-03-21 14:19:40.633000,619,24,4,8,-577,8,-612,8,112,16,466,0,-218,24,255,8,1522,0,-7,16,429,8,-34,24,1207,8,525,16,2,-1,?
2017-03-21 14:19:40.640000,611,24,8,8,-572,8,-615,8,112,16,468,0,-244,24,231,8,1498,0,-24,16,408,8,-49,24,1199,8,524,16,2,-1,?
2017-03-21 14:19:40.647000,605,24,7,8,-574,8,-613,8,108,16,466,0,-255,24,215,8,1481,0,-43,16,390,8,-63,24,1187,8,520,16,2,-1,?
2017-03-21 14:19:40.656000,614,24,3,8,-575,8,-615,8,103,16,465,0,-244,24,230,8,1495,0,-37,16,405,8,-57,24,1197,8,520,16,2,-1,?
2017-03-21 14:19:40.664000,619,24,2,8,-576,8,-615,8,109,16,468,0,-230,24,242,8,1508,0,-18,16,417,8,-41,24,1208,8,522,16,2,-1,?
2017-03-21 14:19:40.671000,612,24,1,8,-578,8,-613,8,113,16,466,0,-228,24,238,8,1498,0,-24,16,410,8,-38,24,1200,8,517,16,2,-1,?
2017-03-21 14:19:40.679000,606,24,1,8,-579,8,-614,8,112,16,465,0,-247,24,228,8,1491,0,-45,16,403,8,-54,24,1191,8,513,16,2,-1,?
2017-03-21 14:19:40.687000,609,24,3,8,-582,8,-613,8,111,16,466,0,-250,24,233,8,1497,0,-32,16,401,8,-58,24,1195,8,517,16,2,-1,?
2017-03-21 14:19:40.694000,609,24,3,8,-578,8,-609,8,110,16,469,0,-228,24,243,8,1501,0,-9,16,414,8,-41,24,1205,8,523,16,2,-1,?
2017-03-21 14:19:40.702000,612,24,2,8,-573,8,-614,8,111,16,469,0,-226,24,242,8,1501,0,-20,16,424,8,-39,24,1205,8,524,16,2,-1,?
2017-03-21 14:19:40.711000,609,24,3,8,-577,8,-621,8,111,16,466,0,-245,24,235,8,1504,0,-40,16,402,8,-60,24,1196,8,522,16,2,-1,?
2017-03-21 14:19:40.719000,603,24,5,8,-576,8,-619,8,109,16,465,0,-250,24,225,8,1495,0,-44,16,386,8,-69,24,1190,8,521,16,2,-1,?
2017-03-21 14:19:40.726000,607,24,4,8,-577,8,-613,8,110,16,465,0,-238,24,230,8,1490,0,-34,16,400,8,-52,24,1193,8,519,16,2,-1,?
2017-03-21 14:19:40.734000,613,24,3,8,-582,8,-613,8,113,16,466,0,-225,24,248,8,1509,0,-12,16,420,8,-34,24,1207,8,520,16,2,-1,?
2017-03-21 14:19:40.741000,616,24,5,8,-579,8,-616,8,110,16,468,0,-228,24,249,8,1515,0,-11,16,419,8,-42,24,1210,8,522,16,2,-1,?
2017-03-21 14:19:40.750000,611,24,8,8,-580,8,-614,8,109,16,467,0,-248,24,234,8,1494,0,-43,16,399,8,-60,24,1191,8,520,16,2,-1,?
2017-03-21 14:19:40.758000,606,24,5,8,-583,8,-614,8,109,16,466,0,-260,24,217,8,1482,0,-55,16,391,8,-63,24,1187,8,514,16,2,-1,?
2017-03-21 14:19:40.766000,610,24,-2,8,-577,8,-615,8,108,16,466,0,-241,24,232,8,1498,0,-26,16,408,8,-46,24,1198,8,516,16,2,-1,?
2017-03-21 14:19:40.774000,620,24,5,8,-573,8,-614,8,117,16,465,0,-225,24,259,8,1514,0,-3,16,423,8,-31,24,1207,8,525,16,2,-1,?
2017-03-21 14:19:40.781000,615,16,18,8,-580,8,-614,8,116,16,466,0,-237,24,248,8,1506,0,-17,16,414,8,-38,24,1207,8,527,16,2,-1,?
2017-03-21 14:19:40.789000,603,16,11,24,-582,8,-613,8,104,16,467,0,-252,24,219,8,1489,0,-41,16,393,8,-57,24,1191,8,517,16,2,-1,?
2017-03-21 14:19:40.797000,609,16,-1,24,-576,8,-614,8,105,16,471,0,-250,24,223,8,1487,0,-40,16,394,8,-60,24,1185,8,520,24,2,-1,?
2017-03-21 14:19:40.805000,616,16,3,24,-576,8,-615,8,113,16,473,0,-234,24,252,8,1504,0,-18,16,414,8,-46,24,1200,8,529,24,2,-1,?
2017-03-21 14:19:40.813000,615,16,8,24,-577,8,-612,24,113,16,467,0,-224,24,251,8,1517,0,-13,16,416,8,-42,24,1210,8,524,24,2,-1,?
2017-03-21 14:19:40.820000,612,16,10,24,-573,8,-611,24,113,16,462,0,-242,24,225,8,1501,0,-29,16,400,8,-51,24,1198,8,516,24,2,-1,?
2017-03-21 14:19:40.828000,607,16,11,24,-573,8,-611,24,113,16,464,0,-256,24,221,8,1486,0,-38,16,396,8,-55,24,1190,8,515,24,2,-1,?
2017-03-21 14:19:40.836000,607,16,5,24,-575,8,-609,24,111,16,468,0,-243,0,242,8,1499,0,-28,16,409,8,-49,24,1200,8,515,24,2,-1,?
2017-03-21 14:19:40.843000,616,16,1,24,-576,8,-610,24,112,16,466,0,-230,0,252,16,1511,0,-23,16,413,8,-44,24,1206,8,515,24,2,-1,?
2017-03-21 14:19:40.852000,619,16,5,24,-579,8,-618,24,114,16,464,0,-235,0,239,16,1504,0,-32,16,401,8,-53,24,1199,8,516,24,2,-1,?
2017-03-21 14:19:40.859000,609,16,6,24,-580,8,-620,24,114,16,471,0,-251,0,225,16,1493,0,-35,24,396,8,-63,24,1192,8,521,24,2,-1,?
2017-03-21 14:19:40.867000,606,16,2,24,-575,8,-612,24,112,16,471,0,-252,0,228,16,1496,0,-25,24,404,24,-48,24,1192,8,523,24,2,-1,?
2017-03-21 14:19:40.874000,617,16,5,24,-576,8,-611,24,113,16,466,0,-236,0,246,16,1511,0,-16,24,414,24,-32,16,1202,8,521,24,2,-1,?
2017-03-21 14:19:40.882000,617,16,8,24,-579,8,-615,24,114,16,468,0,-232,0,248,16,1511,0,-22,24,415,24,-42,16,1207,0,519,24,2,-1,?
2017-03-21 14:19:40.890000,608,16,3,24,-577,8,-616,24,110,16,466,0,-246,0,223,16,1493,0,-36,16,403,24,-59,16,1192,0,520,24,2,-1,?
2017-03-21 14:19:40.899000,611,16,3,24,-577,8,-616,24,108,16,463,0,-262,0,209,16,1483,0,-42,16,391,24,-61,16,1183,0,519,24,2,-1,?
2017-03-21 14:19:40.906000,614,16,7,24,-582,8,-613,24,112,16,465,0,-253,0,230,16,1497,0,-28,16,402,24,-52,16,1197,0,518,24,2,-1,?
2017-03-21 14:19:40.914000,611,16,4,24,-579,8,-611,24,113,16,469,0,-224,0,254,16,1516,0,-10,16,422,24,-34,16,1208,0,523,24,2,-1,?
2017-03-21 14:19:40.921000,614,16,4,24,-575,8,-614,24,114,16,470,0,-219,0,249,16,1515,0,-20,16,416,24,-37,16,1203,0,522,24,2,-1,?
2017-03-21 14:19:40.929000,616,16,7,24,-578,8,-615,24,112,16,469,0,-248,0,227,16,1494,0,-44,16,393,24,-68,16,1188,0,522,24,2,-1,?
2017-03-21 14:19:40.937000,609,16,8,24,-577,8,-612,24,108,16,465,0,-260,0,215,16,1483,0,-47,16,393,24,-73,16,1182,0,525,24,2,-1,?
2017-03-21 14:19:40.945000,607,16,7,24,-576,8,-617,24,113,16,465,0,-235,0,234,16,1500,0,-27,16,411,24,-46,16,1192,0,523,24,2,-1,?
2017-03-21 14:19:40.952000,612,16,3,24,-574,8,-618,24,113,16,468,0,-220,0,259,16,1516,0,-12,16,419,24,-38,16,1206,0,519,24,2,-1,?
2017-03-21 14:19:40.960000,610,16,1,24,-571,8,-612,24,105,16,469,0,-236,0,246,16,1504,0,-29,16,406,24,-53,16,1204,0,518,24,2,-1,?
2017-03-21 14:19:40.968000,606,16,2,24,-579,8,-617,24,108,16,469,0,-250,0,222,16,1484,0,-47,16,391,24,-63,16,1188,0,517,24,2,-1,?
2017-03-21 14:19:40.976000,611,16,1,24,-582,8,-620,24,113,16,466,0,-244,0,226,16,1489,0,-36,16,400,24,-55,16,1190,0,521,24,2,-1,?
2017-03-21 14:19:40.984000,615,16,4,24,-577,8,-613,24,111,16,464,0,-235,0,241,16,1508,0,-15,16,417,24,-41,16,1201,0,524,24,2,-1,?
2017-03-21 14:19:40.991000,613,16,9,24,-579,8,-615,24,111,16,467,0,-240,0,240,16,1507,0,-18,16,409,24,-44,16,1198,0,520,24,2,-1,?
2017-03-21 14:19:40.999000,610,16,2,24,-581,8,-619,24,112,16,466,0,-250,0,228,16,1492,0,-37,16,394,24,-58,16,1192,0,516,24,2,-1,?
2017-03-21 14:19:41.007000,613,16,-2,24,-580,8,-611,24,112,16,465,0,-243,0,230,16,1491,0,-38,16,401,24,-54,16,1192,0,518,24,2,-1,?
2017-03-21 14:19:41.016000,617,16,6,24,-581,8,-609,24,110,16,467,0,-231,0,246,16,1500,0,-23,16,415,24,-42,16,1200,0,525,24,2,-1,?
2017-03-21 14:19:41.023000,619,16,7,24,-577,8,-615,24,108,16,464,0,-236,0,248,16,1504,0,-21,16,414,24,-47,16,1201,0,526,24,2,-1,?
2017-03-21 14:19:41.032000,612,16,2,24,-575,8,-611,24,107,16,464,0,-245,0,229,16,1494,0,-36,16,399,24,-60,16,1189,0,518,24,2,-1,?
2017-03-21 14:19:41.039000,605,16,7,24,-581,8,-607,24,108,16,470,0,-251,0,214,16,1480,0,-43,16,396,24,-66,16,1188,0,519,24,2,-1,?
2017-03-21 14:19:41.047000,611,16,13,24,-586,8,-612,24,106,16,463,0,-244,0,234,16,1495,0,-29,16,409,24,-54,16,1202,0,523,24,2,-1,?
2017-03-21 14:19:41.055000,616,16,11,24,-579,8,-617,24,105,16,462,0,-228,0,259,16,1522,0,-15,16,420,24,-38,16,1213,0,522,24,2,-1,?
2017-03-21 14:19:41.062000,610,16,6,24,-574,8,-616,24,111,16,471,0,-232,0,248,16,1513,0,-21,16,416,24,-42,16,1204,0,523,24,2,-1,?
2017-03-21 14:19:41.071000,604,16,3,24,-582,8,-614,24,110,16,465,0,-251,0,224,16,1486,0,-36,16,398,24,-58,16,1189,0,523,24,2,-1,?
2017-03-21 14:19:41.078000,602,16,5,24,-581,8,-616,24,102,16,460,0,-266,0,213,16,1478,0,-41,16,390,24,-67,16,1187,0,521,24,2,-1,?
2017-03-21 14:19:41.086000,606,16,7,24,-577,8,-616,24,104,16,469,0,-249,0,227,16,1498,0,-29,16,402,24,-52,16,1197,0,519,24,2,-1,?
2017-03-21 14:19:41.094000,615,16,8,24,-581,8,-612,24,113,16,470,0,-222,0,254,16,1519,0,-16,16,421,24,-31,16,1208,0,522,24,2,-1,?
2017-03-21 14:19:41.102000,617,16,8,24,-580,8,-612,24,115,16,465,0,-231,0,255,16,1507,0,-27,16,416,24,-42,16,1196,0,527,24,2,-1,?
2017-03-21 14:19:41.110000,607,16,7,24,-577,8,-616,24,109,16,467,0,-254,0,232,16,1485,0,-45,16,389,24,-66,16,1180,0,524,24,2,-1,?
2017-03-21 14:19:41.118000,606,16,3,24,-576,8,-618,24,108,16,465,0,-256,0,224,16,1491,0,-44,16,391,24,-59,16,1183,0,520,24,2,-1,?
2017-03-21 14:19:41.125000,613,16,-2,24,-576,8,-617,24,112,16,461,0,-238,0,243,16,1513,0,-24,16,418,24,-35,16,1200,0,519,24,2,-1,?
2017-03-21 14:19:41.133000,611,16,0,24,-581,8,-614,24,111,16,465,0,-233,0,252,16,1515,0,-15,16,422,24,-37,16,1207,0,520,24,2,-1,?
2017-03-21 14:19:41.140000,608,16,2,24,-579,8,-615,24,108,16,466,0,-251,0,231,16,1502,0,-36,16,401,24,-54,16,1199,0,522,24,2,-1,?
2017-03-21 14:19:41.148000,611,16,4,24,-576,8,-616,24,109,16,463,0,-260,0,214,16,1497,0,-48,16,389,24,-59,16,1191,0,521,24,2,-1,?
2017-03-21 14:19:41.157000,614,16,7,24,-577,8,-618,24,109,16,467,0,-250,0,223,16,1497,0,-25,16,403,24,-53,16,1198,0,524,24,2,-1,?
2017-03-21 14:19:41.164000,616,16,4,24,-578,8,-616,24,108,16,470,0,-235,0,242,16,1501,0,-11,16,417,24,-44,16,1204,0,527,24,2,-1,?
2017-03-21 14:19:41.172000,613,16,0,24,-572,8,-614,24,114,16,466,0,-237,0,240,16,1496,0,-27,16,409,24,-44,16,1195,0,524,24,2,-1,?
2017-03-21 14:19:41.180000,608,16,6,24,-571,8,-618,24,116,16,465,0,-254,0,222,16,1486,0,-41,16,396,24,-56,16,1191,0,524,24,2,-1,?
2017-03-21 14:19:41.188000,609,16,14,24,-577,8,-617,24,109,16,469,0,-247,0,233,16,1496,0,-30,16,396,24,-52,16,1195,0,523,24,2,-1,?
2017-03-21 14:19:41.196000,612,16,7,24,-578,8,-614,24,107,16,470,0,-230,0,255,16,1510,0,-19,16,410,24,-36,16,1195,0,520,24,2,-1,?
2017-03-21 14:19:41.204000,612,16,4,24,-573,8,-616,24,111,16,468,0,-238,0,244,16,1501,0,-24,16,417,24,-40,16,1196,0,518,24,2,-1,?
2017-03-21 14:19:41.211000,613,16,8,24,-572,8,-617,24,110,16,466,0,-250,0,225,16,1491,0,-33,16,406,24,-55,16,1193,0,519,24,2,-1,?
2017-03-21 14:19:41.218000,610,16,9,24,-577,8,-614,24,108,16,465,0,-255,0,221,16,1489,0,-38,16,396,24,-58,16,1188,0,522,24,2,-1,?
2017-03-21 14:19:41.226000,605,16,5,24,-580,8,-610,24,110,16,466,0,-246,0,233,16,1496,0,-34,16,403,24,-51,16,1192,0,521,24,2,-1,?
2017-03-21 14:19:41.234000,609,16,5,24,-579,8,-611,24,110,16,469,0,-225,0,252,16,1515,0,-19,16,420,24,-42,16,1205,0,519,24,2,-1,?
2017-03-21 14:19:41.242000,612,16,8,24,-578,8,-613,24,111,16,469,0,-228,0,244,16,1517,0,-14,16,420,24,-40,16,1203,0,520,24,2,-1,?
2017-03-21 14:19:41.251000,609,16,5,24,-579,8,-613,24,111,16,465,0,-252,0,222,16,1495,0,-36,16,399,24,-52,16,1189,0,524,24,2,-1,?
2017-03-21 14:19:41.257000,610,16,5,24,-577,8,-613,24,108,16,464,0,-259,0,217,16,1485,0,-49,16,391,24,-63,16,1189,0,524,24,2,-1,?
2017-03-21 14:19:41.266000,615,16,6,24,-579,8,-615,24,108,16,466,0,-238,0,235,16,1504,0,-20,16,406,24,-52,16,1197,0,526,24,2,-1,?
2017-03-21 14:19:41.274000,614,16,5,24,-580,8,-616,24,112,16,470,0,-226,0,251,16,1517,0,-4,16,419,24,-36,16,1200,0,528,24,2,-1,?
2017-03-21 14:19:41.282000,606,16,7,24,-577,8,-612,24,111,16,470,0,-240,0,241,16,1501,0,-28,16,408,24,-44,16,1196,0,527,24,2,-1,?
2017-03-21 14:19:41.289000,603,16,7,8,-580,8,-612,24,110,16,461,0,-254,0,225,16,1486,0,-49,16,386,24,-66,16,1185,0,521,24,2,-1,?
2017-03-21 14:19:41.297000,608,16,5,8,-580,8,-618,24,110,16,462,0,-254,0,225,16,1491,0,-35,16,392,24,-61,16,1187,0,521,16,2,-1,?
2017-03-21 14:19:41.304000,617,16,6,8,-575,16,-617,24,112,16,470,0,-235,0,240,16,1505,0,-14,16,420,24,-36,16,1201,0,527,16,2,-1,?
2017-03-21 14:19:41.312000,616,16,7,8,-575,16,-609,16,114,16,470,0,-228,0,241,16,1503,0,-16,16,423,24,-36,16,1203,0,525,16,2,-1,?
2017-03-21 14:19:41.321000,608,16,0,8,-580,16,-611,16,111,16,466,0,-247,0,225,16,1489,0,-37,16,395,24,-54,16,1193,0,519,16,2,-1,?
2017-03-21 14:19:41.328000,608,16,-3,8,-583,16,-617,16,108,16,464,0,-251,0,225,16,1490,0,-41,16,387,24,-56,16,1188,0,518,16,2,-1,?
2017-03-21 14:19:41.336000,614,16,7,8,-580,16,-613,16,108,16,465,0,-237,8,239,16,1501,0,-20,16,415,24,-42,16,1196,0,520,16,2,-1,?
2017-03-21 14:19:41.343000,615,16,14,8,-574,16,-611,16,111,16,467,0,-236,8,243,24,1501,0,-13,16,420,24,-37,16,1203,0,521,16,2,-1,?
2017-03-21 14:19:41.351000,605,16,7,8,-578,16,-615,16,111,16,466,0,-248,8,235,24,1494,16,-29,16,400,24,-48,16,1193,0,518,16,2,-1,?
2017-03-21 14:19:41.359000,602,16,7,8,-580,16,-616,16,112,16,462,0,-253,8,223,24,1490,16,-41,16,398,24,-61,16,1187,0,516,16,2,-1,?
2017-03-21 14:19:41.367000,612,16,13,8,-576,16,-612,16,118,16,464,0,-243,8,227,24,1495,16,-29,16,406,0,-56,16,1190,0,519,16,2,-1,?
2017-03-21 14:19:41.375000,619,16,10,8,-576,16,-611,16,116,16,468,0,-231,8,243,24,1505,16,-10,16,417,0,-36,0,1198,0,526,16,2,-1,?
2017-03-21 14:19:41.382000,614,16,1,8,-579,16,-613,16,109,16,466,0,-233,8,243,24,1503,16,-9,16,422,0,-36,0,1205,16,527,16,2,-1,?
2017-03-21 14:19:41.391000,605,16,0,8,-580,16,-612,16,107,16,466,0,-244,8,229,24,1493,16,-28,16,399,0,-53,0,1197,16,520,16,2,-1,?
2017-03-21 14:19:41.399000,607,16,5,8,-577,16,-612,16,111,16,473,0,-250,8,220,24,1488,16,-47,16,384,8,-63,0,1190,16,517,16,2,-1,?
2017-03-21 14:19:41.407000,613,16,8,8,-580,16,-612,16,114,16,470,0,-243,8,228,24,1500,16,-35,16,401,8,-57,16,1196,16,519,16,2,-1,?
2017-03-21 14:19:41.415000,615,16,7,8,-579,16,-611,16,113,16,462,0,-224,8,244,24,1512,16,-5,16,422,8,-41,16,1209,16,520,16,2,-1,?
2017-03-21 14:19:41.423000,611,16,8,8,-574,16,-611,16,109,16,468,0,-225,8,247,24,1499,16,-8,16,422,8,-39,16,1205,16,522,16,2,-1,?
2017-03-21 14:19:41.430000,603,16,8,8,-579,16,-614,16,105,16,468,0,-246,8,230,24,1484,16,-40,16,395,8,-56,16,1189,16,520,16,2,-1,?
2017-03-21 14:19:41.437000,603,16,4,8,-580,16,-619,16,107,16,465,0,-252,8,219,24,1493,16,-43,16,387,8,-61,16,1189,16,518,16,2,-1,?
2017-03-21 14:19:41.446000,612,16,5,8,-575,16,-614,16,109,16,469,0,-237,8,240,24,1505,16,-15,16,415,8,-45,16,1200,16,520,16,2,-1,?
2017-03-21 14:19:41.454000,617,16,8,8,-575,16,-608,16,107,16,471,0,-235,8,256,24,1504,16,-4,16,428,8,-33,16,1206,16,526,16,2,-1,?
2017-03-21 14:19:41.462000,614,16,7,8,-580,16,-613,16,110,16,468,0,-250,8,229,24,1495,16,-27,16,407,8,-46,16,1203,16,523,16,2,-1,?
2017-03-21 14:19:41.468000,608,16,4,8,-576,16,-615,16,114,16,465,0,-254,8,212,24,1487,16,-46,16,391,8,-68,16,1190,16,512,16,2,-1,?
2017-03-21 14:19:41.476000,608,16,7,8,-571,16,-613,16,113,16,468,0,-244,8,230,24,1495,16,-34,16,407,8,-61,16,1190,16,512,16,2,-1,?
2017-03-21 14:19:41.484000,613,16,10,8,-578,16,-608,16,113,16,467,0,-234,8,245,24,1508,16,-17,16,422,8,-38,16,1209,16,522,16,2,-1,?
2017-03-21 14:19:41.492000,616,16,7,8,-582,16,-610,16,109,16,465,0,-233,8,241,24,1500,16,-20,16,415,8,-40,16,1208,16,528,16,2,-1,?
2017-03-21 14:19:41.500000,608,16,4,8,-577,16,-616,16,106,16,466,0,-248,8,227,24,1483,16,-37,16,398,8,-59,16,1191,16,523,16,2,-1,?
2017-03-21 14:19:41.508000,605,16,4,8,-580,16,-614,16,110,16,467,0,-250,8,228,24,1494,16,-31,16,397,8,-58,16,1190,16,520,16,2,-1,?
2017-03-21 14:19:41.516000,611,16,4,8,-582,16,-610,16,111,16,471,0,-236,8,244,24,1512,16,-11,16,415,8,-44,16,1206,16,523,16,2,-1,?
2017-03-21 14:19:41.524000,611,16,6,8,-578,16,-610,16,107,16,470,0,-236,8,247,24,1509,16,-17,16,413,8,-39,16,1206,16,522,16,2,-1,?
2017-03-21 14:19:41.532000,610,16,4,8,-576,16,-610,16,106,16,463,0,-244,8,234,24,1496,16,-40,16,393,8,-49,16,1189,16,519,16,2,-1,?
2017-03-21 14:19:41.540000,615,16,3,8,-576,16,-612,16,108,16,467,0,-254,8,221,24,1488,16,-49,16,393,8,-64,16,1185,16,520,16,2,-1,?
2017-03-21 14:19:41.548000,617,16,9,8,-580,16,-614,16,107,16,468,0,-248,8,230,24,1497,16,-28,16,404,8,-59,16,1193,16,523,16,2,-1,?
2017-03-21 14:19:41.556000,618,16,12,8,-581,16,-612,16,109,16,463,0,-228,8,249,24,1512,16,-7,16,419,8,-34,16,1207,16,525,16,2,-1,?
2017-03-21 14:19:41.562000,615,16,0,8,-578,16,-613,16,111,16,465,0,-228,8,253,24,1507,16,-16,16,423,8,-34,16,1210,16,521,16,2,-1,?
2017-03-21 14:19:41.571000,609,16,-8,8,-580,16,-618,16,111,16,467,0,-250,8,237,24,1494,16,-38,16,392,8,-62,16,1190,16,518,16,2,-1,?
2017-03-21 14:19:41.579000,610,16,0,8,-581,16,-617,16,113,16,466,0,-261,8,212,24,1488,16,-47,16,378,8,-68,16,1179,16,522,16,2,-1,?
2017-03-21 14:19:41.586000,616,16,4,8,-575,16,-609,16,111,16,467,0,-240,8,226,24,1496,16,-28,16,406,8,-47,16,1192,16,524,16,2,-1,?
2017-03-21 14:19:41.594000,621,16,1,8,-570,16,-607,16,106,16,469,0,-224,8,256,24,1513,16,-10,16,430,8,-32,16,1208,16,522,16,2,-1,?
2017-03-21 14:19:41.601000,618,16,6,8,-576,16,-614,16,105,16,468,0,-238,8,241,24,1509,16,-22,16,418,8,-40,16,1204,16,521,16,2,-1,?
2017-03-21 14:19:41.609000,608,16,8,8,-587,16,-617,16,107,16,466,0,-256,8,214,24,1486,16,-45,16,396,8,-57,16,1185,16,517,16,2,-1,?
2017-03-21 14:19:41.618000,608,16,4,8,-580,16,-618,16,106,16,465,0,-258,8,223,24,1484,16,-41,16,399,8,-61,16,1185,16,521,16,2,-1,?
2017-03-21 14:19:41.625000,615,16,5,8,-573,16,-616,16,107,16,468,0,-235,8,249,24,1506,16,-16,16,416,8,-45,16,1207,16,530,16,2,-1,?
2017-03-21 14:19:41.633000,610,16,7,8,-578,16,-612,16,112,16,469,0,-223,8,252,24,1515,16,-16,16,418,8,-36,16,1213,16,526,16,2,-1,?
2017-03-21 14:19:41.642000,607,16,5,8,-579,16,-613,16,112,16,464,0,-247,8,228,24,1501,16,-39,16,407,8,-54,16,1193,16,519,16,2,-1,?
2017-03-21 14:19:41.648000,610,16,3,8,-580,16,-615,16,113,16,462,0,-256,8,220,24,1491,16,-44,16,404,8,-66,16,1186,16,518,16,2,-1,?
2017-03-21 14:19:41.657000,607,16,2,8,-582,16,-617,16,116,16,467,0,-238,8,238,24,1499,16,-26,16,410,8,-50,16,1206,16,521,16,2,-1,?
2017-03-21 14:19:41.664000,610,16,6,8,-577,16,-613,16,115,16,470,0,-233,8,249,24,1511,16,-21,16,412,8,-41,16,1211,16,525,16,2,-1,?
2017-03-21 14:19:41.672000,613,16,7,8,-571,16,-608,16,106,16,464,0,-241,8,242,24,1510,16,-36,16,400,8,-56,16,1194,16,524,16,2,-1,?
2017-03-21 14:19:41.681000,610,16,4,8,-576,16,-610,16,105,16,464,0,-252,8,228,24,1495,16,-38,16,395,8,-65,16,1187,16,522,16,2,-1,?
2017-03-21 14:19:41.688000,611,16,0,8,-583,16,-616,16,115,16,467,0,-252,8,228,24,1494,16,-22,16,407,8,-49,16,1195,16,525,16,2,-1,?
2017-03-21 14:19:41.696000,615,16,1,8,-578,16,-618,16,119,16,466,0,-236,8,243,24,1510,16,-12,16,421,8,-32,16,1207,16,525,16,2,-1,?
2017-03-21 14:19:41.704000,617,16,2,8,-573,16,-614,16,114,16,467,0,-227,8,247,24,1511,16,-23,16,417,8,-40,16,1208,16,519,16,2,-1,?
2017-03-21 14:19:41.712000,614,16,3,8,-577,16,-608,16,111,16,466,0,-246,8,233,24,1497,16,-39,16,393,8,-58,16,1190,16,516,16,2,-1,?
2017-03-21 14:19:41.720000,608,16,3,8,-576,16,-609,16,113,16,465,0,-265,8,222,24,1481,16,-44,16,388,8,-63,16,1182,16,519,16,2,-1,?
2017-03-21 14:19:41.728000,609,16,3,8,-573,16,-615,16,114,16,465,0,-249,8,231,24,1488,16,-28,16,411,8,-50,16,1196,16,517,16,2,-1,?
2017-03-21 14:19:41.734000,622,16,4,8,-577,16,-616,16,114,16,465,0,-225,8,249,24,1515,16,-7,16,427,8,-33,16,1209,16,521,16,2,-1,?
2017-03-21 14:19:41.742000,623,16,7,8,-576,16,-614,16,113,16,466,0,-228,8,254,24,1521,16,-18,16,414,8,-34,16,1205,16,524,16,2,-1,?
2017-03-21 14:19:41.750000,607,16,4,8,-575,16,-612,16,111,16,467,0,-247,8,235,24,1493,16,-42,16,392,8,-55,16,1192,16,517,16,2,-1,?
2017-03-21 14:19:41.758000,603,16,1,8,-578,16,-610,16,111,16,467,0,-255,8,217,24,1479,16,-42,16,396,8,-67,16,1188,16,518,16,2,-1,?
2017-03-21 14:19:41.766000,613,16,2,8,-579,16,-611,16,110,16,467,0,-241,8,234,24,1505,16,-21,16,414,8,-49,16,1196,16,523,16,2,-1,?
2017-03-21 14:19:41.773000,617,16,5,8,-575,16,-614,16,110,16,467,0,-225,8,258,24,1524,16,-14,16,420,8,-33,16,1206,16,527,16,2,-1,?
2017-03-21 14:19:41.781000,609,16,6,8,-574,16,-612,16,113,16,466,0,-235,8,244,24,1502,16,-36,16,406,8,-48,16,1204,16,524,16,2,-1,?
2017-03-21 14:19:41.789000,603,24,6,8,-580,16,-612,16,112,16,463,0,-252,8,221,24,1482,16,-52,16,390,8,-66,16,1191,16,520,16,2,-1,?
2017-03-21 14:19:41.798000,611,24,8,8,-580,16,-617,16,107,16,465,0,-249,8,224,24,1494,16,-35,16,399,8,-55,16,1192,16,521,16,2,-1,?
2017-03-21 14:19:41.806000,616,24,6,8,-578,16,-617,16,111,16,471,0,-235,8,245,24,1513,16,-18,16,413,8,-39,16,1203,16,522,24,2,-1,?
2017-03-21 14:19:41.814000,615,24,-1,8,-579,24,-610,16,113,16,471,0,-233,8,253,24,1512,16,-28,16,403,8,-47,16,1201,16,521,24,2,-1,?
2017-03-21 14:19:41.821000,612,24,2,8,-576,24,-608,16,106,16,466,0,-249,8,232,24,1498,16,-39,16,394,8,-59,16,1193,16,521,24,2,-1,?
2017-03-21 14:19:41.829000,609,24,6,8,-576,24,-611,16,106,24,463,0,-248,8,229,24,1499,16,-28,16,402,8,-52,16,1195,16,519,24,2,-1,?
2017-03-21 14:19:41.837000,611,24,7,8,-575,24,-613,16,113,24,466,16,-231,8,248,24,1510,16,-17,16,415,8,-39,16,1204,16,519,24,2,-1,?
2017-03-21 14:19:41.845000,613,24,6,8,-571,24,-611,16,114,24,468,16,-233,0,245,24,1508,16,-25,16,411,8,-44,16,1203,16,521,24,2,-1,?
2017-03-21 14:19:41.853000,610,24,6,8,-574,24,-610,16,111,24,463,16,-252,0,228,24,1497,16,-41,16,396,8,-61,16,1189,16,519,24,2,-1,?
2017-03-21 14:19:41.859000,607,24,3,8,-579,24,-617,16,110,24,465,16,-262,0,220,24,1486,8,-42,16,398,8,-64,16,1190,16,519,24,2,-1,?
2017-03-21 14:19:41.868000,612,24,3,8,-579,24,-621,16,109,24,471,16,-245,0,234,24,1495,8,-27,24,407,8,-48,16,1202,16,518,24,2,-1,?
2017-03-21 14:19:41.876000,618,24,5,8,-576,24,-617,16,111,24,468,16,-224,0,252,24,1517,8,-16,24,417,0,-34,16,1209,16,519,24,2,-1,?
2017-03-21 14:19:41.884000,614,24,7,8,-575,24,-613,16,115,24,464,16,-231,0,246,24,1510,8,-27,24,416,0,-43,0,1206,16,525,24,2,-1,?
2017-03-21 14:19:41.892000,605,24,7,8,-580,24,-612,16,111,24,464,16,-250,0,224,24,1483,8,-43,24,397,0,-59,0,1191,0,521,24,2,-1,?
2017-03-21 14:19:41.900000,606,24,7,8,-579,24,-615,16,104,24,465,16,-259,0,212,24,1481,8,-46,8,390,0,-62,0,1186,0,518,24,2,-1,?
2017-03-21 14:19:41.907000,612,24,8,8,-574,24,-615,16,105,24,464,16,-243,0,231,24,1504,8,-32,8,404,0,-49,0,1195,0,523,24,2,-1,?
2017-03-21 14:19:41.914000,613,24,7,8,-575,24,-613,16,108,24,465,16,-222,0,253,24,1517,8,-16,8,419,0,-32,0,1210,0,528,24,2,-1,?
2017-03-21 14:19:41.923000,612,24,10,8,-578,24,-616,16,110,24,463,16,-236,0,249,24,1511,8,-27,8,415,0,-41,0,1208,0,524,24,2,-1,?
2017-03-21 14:19:41.930000,606,24,12,8,-580,24,-616,16,111,24,461,16,-260,0,229,24,1491,8,-45,8,398,0,-63,0,1185,0,519,24,2,-1,?
2017-03-21 14:19:41.938000,603,24,9,8,-576,24,-612,16,111,24,467,16,-258,0,220,24,1481,8,-40,8,402,0,-59,0,1183,0,523,24,2,-1,?
2017-03-21 14:19:41.945000,614,24,5,8,-572,24,-609,16,112,24,470,16,-238,0,238,24,1500,8,-21,8,420,0,-36,0,1203,0,522,24,2,-1,?
2017-03-21 14:19:41.953000,617,24,2,8,-573,24,-613,16,112,24,467,16,-227,0,256,24,1518,8,-16,8,416,0,-34,0,1206,0,519,24,2,-1,?
2017-03-21 14:19:41.961000,608,24,5,8,-576,24,-615,16,111,24,465,16,-241,0,241,24,1501,8,-34,8,393,0,-53,0,1192,0,524,24,2,-1,?
2017-03-21 14:19:41.969000,604,24,2,8,-580,24,-611,16,114,24,459,16,-253,0,223,24,1486,8,-45,8,385,0,-58,0,1184,0,525,24,2,-1,?
2017-03-21 14:19:41.978000,610,24,0,8,-577,24,-612,16,114,24,459,16,-248,0,232,24,1500,8,-33,8,403,0,-45,0,1193,0,521,24,2,-1,?
2017-03-21 14:19:41.985000,616,24,4,8,-572,24,-615,16,111,24,470,16,-238,0,245,24,1512,8,-19,8,413,0,-39,0,1203,0,518,24,2,-1,?
2017-03-21 14:19:41.992000,611,24,5,8,-576,24,-616,16,114,24,470,16,-241,0,239,24,1498,8,-25,8,404,0,-48,0,1199,0,521,24,2,-1,?
2017-03-21 14:19:42.001000,607,24,4,8,-581,24,-617,16,115,24,467,16,-254,0,222,24,1485,8,-40,8,400,0,-59,0,1192,0,526,24,2,-1,?
2017-03-21 14:19:42.009000,613,24,7,8,-582,24,-618,16,109,24,473,16,-244,0,230,24,1499,8,-35,8,403,0,-52,0,1195,0,526,24,2,-1,?
2017-03-21 14:19:42.016000,617,24,8,8,-578,24,-619,16,109,24,472,16,-232,0,255,24,1515,8,-17,8,409,0,-39,0,1207,0,521,24,2,-1,?
2017-03-21 14:19:42.025000,613,24,6,8,-578,24,-615,16,113,24,462,16,-242,0,253,24,1506,8,-18,8,412,0,-44,0,1202,0,520,24,2,-1,?
2017-03-21 14:19:42.031000,608,24,9,8,-582,24,-613,16,110,24,461,16,-254,0,230,24,1490,8,-35,8,400,0,-55,0,1183,0,521,24,2,-1,?
2017-03-21 14:19:42.039000,605,24,9,8,-580,24,-616,16,107,24,466,16,-258,0,219,24,1484,8,-41,8,392,0,-60,0,1184,0,520,24,2,-1,?
2017-03-21 14:19:42.047000,610,24,2,8,-577,24,-614,16,109,24,469,16,-246,0,235,24,1498,8,-29,8,399,0,-52,0,1197,0,521,24,2,-1,?
2017-03-21 14:19:42.055000,617,24,0,8,-578,24,-611,16,110,24,471,16,-226,0,257,24,1521,8,-15,8,417,0,-38,0,1206,0,525,24,2,-1,?
2017-03-21 14:19:42.063000,614,24,9,8,-578,24,-615,16,110,24,469,16,-229,0,250,24,1515,8,-18,8,418,0,-43,0,1204,0,527,24,2,-1,?
2017-03-21 14:19:42.071000,604,24,9,8,-578,24,-617,16,107,24,463,16,-245,0,229,24,1490,8,-34,8,396,0,-63,0,1189,0,522,24,2,-1,?
2017-03-21 14:19:42.079000,603,24,5,8,-578,24,-616,16,109,24,465,16,-256,0,220,24,1484,8,-40,8,393,0,-66,0,1185,0,517,24,2,-1,?
2017-03-21 14:19:42.086000,610,24,10,8,-579,24,-611,16,116,24,470,16,-245,0,234,24,1500,8,-25,8,409,0,-48,0,1199,0,516,24,2,-1,?
2017-03-21 14:19:42.095000,614,24,11,8,-578,24,-609,16,116,24,468,16,-228,0,256,24,1515,8,-12,8,416,0,-38,0,1204,0,522,24,2,-1,?
2017-03-21 14:19:42.102000,608,24,6,8,-576,24,-617,16,109,24,466,16,-241,0,247,24,1504,8,-27,8,403,0,-50,0,1195,0,528,24,2,-1,?
2017-03-21 14:19:42.111000,602,24,4,8,-579,24,-619,16,106,24,466,16,-259,0,223,24,1486,8,-45,8,385,0,-62,0,1186,0,522,24,2,-1,?
2017-03-21 14:19:42.118000,603,24,6,8,-579,24,-615,16,111,24,469,16,-252,0,223,24,1490,8,-31,8,395,0,-54,0,1192,0,520,24,2,-1,?
2017-03-21 14:19:42.125000,612,24,5,8,-576,24,-616,16,113,24,474,16,-232,0,244,24,1512,8,-11,8,416,0,-36,0,1206,0,526,24,2,-1,?
2017-03-21 14:19:42.133000,619,24,5,8,-577,24,-619,16,108,24,471,16,-228,0,248,24,1513,8,-19,8,416,0,-38,0,1205,0,522,24,2,-1,?
2017-03-21 14:19:42.141000,612,24,5,8,-577,24,-619,16,102,24,465,16,-248,0,226,24,1492,8,-39,8,402,0,-58,0,1193,0,517,24,2,-1,?
2017-03-21 14:19:42.149000,603,24,3,8,-577,24,-616,16,106,24,464,16,-253,0,228,24,1492,8,-39,8,394,0,-58,0,1190,0,521,24,2,-1,?
2017-03-21 14:19:42.157000,610,24,4,8,-574,24,-613,16,113,24,466,16,-242,0,246,24,1501,8,-24,8,404,0,-44,0,1199,0,524,24,2,-1,?
2017-03-21 14:19:42.164000,617,24,6,8,-571,24,-610,16,114,24,463,16,-239,0,241,24,1500,8,-22,8,414,0,-45,0,1202,0,523,24,2,-1,?
2017-03-21 14:19:42.172000,611,24,3,8,-579,24,-614,16,111,24,461,16,-244,0,2