Timestamp,F3 Value,F3 Quality,FC5 Value,FC5 Quality,F7 Value,F7 Quality,T7 Value,T7 Quality,P7 Value,P7 Quality,O1 Value,O1 Quality,O2 Value,O2 Quality,P8 Value,P8 Quality,T8 Value,T8 Quality,F8 Value,F8 Quality,AF4 Value,AF4 Quality,FC6 Value,FC6 Quality,F4 Value,F4 Quality,AF3 Value,AF3 Quality,X Value,Y Value,Z Value
2017-03-27 15:09:52.107000,474,0,-26,0,-799,0,-649,0,55,0,367,0,-227,0,414,0,-2948,0,-560,0,287,0,-368,0,1152,0,426,0,1,-1,?
2017-03-27 15:09:52.111000,486,0,-29,0,-784,0,-684,0,46,0,356,0,-216,0,406,0,-2944,0,-522,0,311,0,-346,0,1177,0,440,0,1,-1,?
2017-03-27 15:09:52.113000,446,0,-38,0,-834,0,-717,0,41,0,345,0,-251,0,392,0,-2956,0,-579,0,273,0,-380,0,1162,0,400,0,1,-1,?
2017-03-27 15:09:52.119000,450,0,-35,0,-844,0,-699,0,53,0,371,0,-244,0,409,0,-2931,0,-604,0,265,0,-392,0,1179,0,400,0,0,-1,?
2017-03-27 15:09:52.128000,473,0,-30,0,-803,0,-688,0,51,0,378,0,-211,0,419,0,-2898,0,-569,0,294,0,-357,0,1206,0,425,0,0,-1,?
2017-03-27 15:09:52.134000,456,0,-39,0,-799,0,-699,0,37,0,344,0,-226,0,404,0,-2918,0,-565,0,294,0,-344,0,1194,0,420,0,-1,-1,?
2017-03-27 15:09:52.142000,437,0,-40,0,-823,0,-703,0,34,0,329,0,-252,0,400,0,-2946,0,-598,0,271,0,-368,0,1176,0,405,0,-1,-1,?
2017-03-27 15:09:52.150000,458,0,-29,0,-799,0,-674,0,49,0,349,0,-235,0,413,0,-2912,0,-565,0,283,0,-357,0,1186,0,418,0,-1,-1,?
2017-03-27 15:09:52.158000,488,0,-29,0,-751,0,-650,0,63,0,367,0,-207,0,421,0,-2861,0,-504,0,317,0,-322,0,1205,0,449,0,-2,-1,?
2017-03-27 15:09:52.166000,484,0,-35,0,-759,0,-666,0,52,0,363,0,-214,0,413,0,-2867,0,-541,0,312,0,-334,0,1206,0,451,0,-2,-1,?
2017-03-27 15:09:52.174000,476,7040,-33,0,-770,0,-677,0,44,0,348,0,-236,0,408,0,-2885,0,-573,0,306,0,-357,0,1201,0,449,0,-3,-1,?
2017-03-27 15:09:52.182000,495,7040,-32,536,-746,0,-667,0,54,0,343,0,-245,0,413,0,-2869,0,-478,0,352,0,-330,0,1213,0,488,0,-3,-1,?
2017-03-27 15:09:52.189000,511,7040,-34,536,-732,0,-661,0,61,0,350,0,-238,0,416,0,-2835,0,-357,0,420,0,-285,0,1234,0,536,6256,-3,-1,?
2017-03-27 15:09:52.197000,518,7040,-29,536,-715,136,-668,0,49,0,345,0,-226,0,413,0,-2814,0,-281,0,466,0,-258,0,1250,0,562,6256,-4,-1,?
2017-03-27 15:09:52.206000,531,7040,-26,536,-684,136,-676,1256,40,0,333,0,-220,0,415,0,-2814,0,-172,0,513,0,-224,0,1266,0,593,6256,-4,-1,?
2017-03-27 15:09:52.214000,547,7040,-30,536,-696,136,-675,1256,50,1056,352,0,-215,0,416,0,-2801,0,-50,0,573,0,-177,0,1279,0,626,6256,-4,-1,?
2017-03-27 15:09:52.221000,548,7040,-33,536,-747,136,-689,1256,61,1056,367,792,-199,0,420,0,-2770,0,18,0,614,0,-128,0,1284,0,643,6256,-4,-1,?
2017-03-27 15:09:52.228000,552,7040,-33,536,-769,136,-704,1256,62,1056,366,792,-186,6320,434,0,-2749,0,101,0,649,0,-76,0,1297,0,665,6256,-4,-1,?
2017-03-27 15:09:52.236000,569,7040,-36,536,-777,136,-694,1256,66,1056,376,792,-176,6320,443,320,-2731,0,214,0,684,0,-55,0,1311,0,687,6256,-5,-1,?
2017-03-27 15:09:52.244000,582,7040,-37,536,-799,136,-685,1256,75,1056,389,792,-157,6320,443,320,-2709,5448,284,0,709,0,-56,0,1320,0,694,6256,-5,-1,?
2017-03-27 15:09:52.252000,572,7040,-34,536,-825,136,-702,1256,66,1056,383,792,-151,6320,440,320,-2709,5448,291,728,718,0,-55,0,1325,0,687,6256,-5,-1,?
2017-03-27 15:09:52.260000,559,7040,-32,536,-847,136,-719,1256,52,1056,378,792,-160,6320,433,320,-2712,5448,292,728,721,48,-47,0,1325,0,676,6256,-5,-1,?
2017-03-27 15:09:52.269000,555,7040,-32,536,-869,136,-731,1256,55,1056,382,792,-157,6320,427,320,-2709,5448,311,728,710,48,-39,4656,1314,0,666,6256,-5,-1,?
2017-03-27 15:09:52.276000,550,7040,-36,536,-889,136,-741,1256,55,1056,381,792,-157,6320,434,320,-2723,5448,321,728,698,48,-37,4656,1301,5096,651,6256,-5,-1,?
2017-03-27 15:09:52.284000,548,7040,-39,536,-892,136,-734,1256,53,1056,379,792,-163,6320,448,320,-2716,5448,335,728,708,48,-15,4656,1309,5096,644,6256,-5,-1,?
2017-03-27 15:09:52.293000,552,7040,-34,536,-902,136,-730,1256,61,1056,386,792,-157,6320,447,320,-2668,5448,344,728,710,48,-2,4656,1317,5096,637,6256,-5,-1,?
2017-03-27 15:09:52.299000,553,7040,-33,536,-931,136,-732,1256,66,1056,399,792,-159,6320,443,320,-2639,5448,342,728,685,48,-12,4664,1306,5096,610,6256,-5,-1,?
2017-03-27 15:09:52.308000,556,7040,-36,536,-938,136,-726,1256,73,1056,410,792,-158,6320,458,320,-2647,5448,357,728,674,48,-8,4664,1303,5096,589,6256,-5,-1,?
2017-03-27 15:09:52.314000,565,7040,-34,536,-930,136,-709,1256,97,1056,422,792,-130,6320,476,320,-2637,5448,380,728,684,48,10,4664,1309,5096,591,6256,-5,-1,?
2017-03-27 15:09:52.322000,564,7040,-37,536,-949,136,-704,1256,104,1056,416,792,-96,6320,474,320,-2605,5448,374,728,662,48,4,4664,1297,5096,578,6256,-4,-1,?
2017-03-27 15:09:52.330000,538,7040,-44,536,-979,136,-722,1256,78,1056,393,792,-86,6320,467,320,-2603,5448,346,728,619,48,-18,4664,1275,5096,533,6256,-4,-1,?
2017-03-27 15:09:52.338000,515,7040,-37,536,-990,136,-727,1256,78,1056,400,792,-98,6320,465,320,-2613,5448,334,728,604,48,-23,4664,1275,5096,514,6256,-4,-1,?
2017-03-27 15:09:52.347000,522,7040,-31,536,-993,136,-720,1256,100,1056,420,792,-115,6320,454,320,-2599,5448,324,728,600,48,-32,4664,1286,5096,528,6256,-4,-1,?
2017-03-27 15:09:52.354000,521,7040,-36,536,-1002,136,-722,1256,97,1056,410,792,-133,6320,442,320,-2598,5448,287,728,577,48,-44,4664,1279,5096,520,6256,-4,-1,?
2017-03-27 15:09:52.361000,490,7040,-38,536,-1015,136,-729,1256,81,1056,393,792,-158,6320,439,320,-2620,5448,251,728,540,48,-49,4664,1258,5096,488,6256,-3,-1,?
2017-03-27 15:09:52.370000,472,7040,-34,536,-1017,136,-736,1256,74,1056,395,792,-173,6320,446,320,-2617,5448,247,728,520,48,-55,4664,1255,5096,476,6256,-3,-1,?
2017-03-27 15:09:52.377000,488,7040,-33,536,-1003,136,-740,1256,79,1056,403,792,-151,6320,463,320,-2592,5448,247,728,520,48,-62,4664,1273,5096,487,6256,-3,-1,?
2017-03-27 15:09:52.386000,501,7040,-35,536,-992,136,-729,1256,90,1056,411,792,-124,6320,474,320,-2581,5448,206,728,521,48,-59,4664,1283,5096,489,6256,-3,-1,?
2017-03-27 15:09:52.393000,487,7040,-38,536,-1001,136,-722,1256,87,1056,414,792,-117,6320,466,320,-2585,5448,149,728,502,48,-59,4664,1269,5096,468,6256,-2,-1,?
2017-03-27 15:09:52.401000,472,7040,-37,536,-1010,136,-726,1256,83,1056,410,792,-104,6320,460,320,-2580,5448,131,728,486,48,-67,4664,1261,5096,452,6256,-2,-1,?
2017-03-27 15:09:52.408000,475,7040,-35,536,-1007,136,-735,1256,90,1056,415,792,-88,6320,469,320,-2566,5448,136,728,489,48,-73,4664,1269,5096,454,6256,-2,-1,?
2017-03-27 15:09:52.417000,480,7040,-32,536,-1001,136,-742,1256,85,1056,412,792,-92,6320,467,320,-2561,5448,117,728,492,48,-79,4664,1265,5096,461,6256,-2,-1,?
2017-03-27 15:09:52.424000,484,7040,-30,536,-1001,136,-727,1256,83,1056,408,792,-105,6320,454,320,-2565,5448,85,728,478,48,-85,4664,1262,5096,462,6256,-1,-1,?
2017-03-27 15:09:52.433000,484,7040,-33,536,-999,136,-703,1256,103,1056,434,792,-101,6320,460,320,-2559,5448,77,728,466,48,-88,4664,1271,5096,460,6256,-1,-1,?
2017-03-27 15:09:52.440000,482,7040,-39,536,-992,136,-703,1256,105,1056,444,792,-91,6320,477,320,-2549,5448,84,728,475,48,-75,4664,1281,5096,465,6256,-1,-1,?
2017-03-27 15:09:52.447000,482,7040,-39,536,-992,136,-716,1256,90,1056,418,792,-87,6320,476,320,-2533,5448,79,728,483,48,-64,4664,1281,5096,470,6256,-1,-1,?
2017-03-27 15:09:52.455000,482,7040,-34,536,-1005,136,-720,1256,98,1056,416,792,-82,6320,468,320,-2518,5448,56,728,469,48,-74,4664,1276,5096,458,6256,-1,-1,?
2017-03-27 15:09:52.463000,473,7040,-34,536,-1000,136,-712,1256,108,1056,437,792,-79,6320,473,320,-2521,5448,32,728,450,48,-92,4664,1269,5096,444,6256,-1,-1,?
2017-03-27 15:09:52.473000,465,7040,-32,536,-998,136,-700,1256,110,1056,437,792,-85,6320,473,320,-2525,5448,21,728,437,48,-107,4664,1263,5096,442,6256,0,-1,?
2017-03-27 15:09:52.479000,469,7040,-32,536,-1018,136,-703,1256,111,1056,434,792,-93,6320,463,320,-2524,5448,13,728,431,48,-110,4664,1262,5096,444,6256,0,-1,?
2017-03-27 15:09:52.486000,484,7040,-36,536,-1013,136,-701,1256,107,1056,444,792,-91,6320,463,320,-2529,5448,8,728,437,48,-102,4664,1269,5096,448,6256,0,-1,?
2017-03-27 15:09:52.494000,496,7040,-30,536,-973,136,-676,1256,109,1056,448,792,-83,6320,474,320,-2517,5448,26,728,451,48,-86,4664,1278,5096,460,6256,0,-1,?
2017-03-27 15:09:52.502000,499,7040,-26,536,-963,136,-675,1256,115,1056,450,792,-77,6320,482,320,-2489,5448,60,728,452,48,-72,4664,1264,5096,463,6256,0,-1,?
2017-03-27 15:09:52.510000,491,7040,-34,536,-993,136,-709,1256,100,1056,443,792,-95,6320,477,320,-2498,5448,48,728,433,48,-85,4664,1231,5096,449,6256,0,-1,?
2017-03-27 15:09:52.519000,478,7040,-38,536,-1007,136,-727,1256,76,1056,415,792,-126,6320,465,320,-2528,5448,-3,728,406,48,-116,4664,1210,5096,436,6256,1,-1,?
2017-03-27 15:09:52.525000,477,7040,-38,536,-996,136,-712,1256,84,1056,403,792,-128,6320,467,320,-2516,5448,-23,728,394,48,-121,4664,1219,5096,436,6256,1,-1,?
2017-03-27 15:09:52.533000,478,7040,-36,536,-989,136,-703,1256,103,1056,425,792,-117,6320,476,320,-2489,5448,-25,728,401,48,-111,4664,1234,5096,441,6256,1,-1,?
2017-03-27 15:09:52.542000,467,7040,-33,536,-991,136,-705,1256,100,1056,437,792,-123,6320,469,320,-2495,5448,-44,728,402,48,-110,4664,1225,5096,436,6256,1,-1,?
2017-03-27 15:09:52.549000,467,7040,-34,536,-984,136,-708,1256,94,1056,434,792,-112,6320,462,320,-2500,5448,-53,728,398,48,-107,4664,1225,5096,435,6256,1,-1,?
2017-03-27 15:09:52.557000,487,7040,-33,536,-967,136,-715,1256,98,1056,437,792,-96,6320,472,320,-2484,5448,-47,728,409,48,-101,4664,1248,5096,446,6256,1,-1,?
2017-03-27 15:09:52.566000,497,7040,-36,536,-966,136,-714,1256,101,1056,438,792,-110,6320,482,320,-2464,5448,-51,728,425,48,-99,4664,1265,5096,453,6256,2,-1,?
2017-03-27 15:09:52.572000,494,7040,-37,536,-967,136,-701,1256,99,1056,422,792,-115,6320,473,320,-2453,5448,-53,728,421,48,-95,4664,1283,5096,452,6256,2,-2,?
2017-03-27 15:09:52.580000,483,7040,-35,536,-970,136,-705,1256,98,1056,410,792,-97,6320,462,320,-2464,5448,-59,728,404,48,-95,4664,1303,5096,447,6256,2,-2,?
2017-03-27 15:09:52.589000,470,7040,-38,536,-982,136,-719,1256,102,1056,429,792,-92,6320,468,320,-2468,5448,-74,728,396,48,-101,4664,1303,5096,440,6256,2,-2,?
2017-03-27 15:09:52.597000,473,7040,-38,536,-976,136,-715,1256,107,1056,441,792,-99,6320,467,320,-2442,5448,-74,728,393,48,-101,4664,1289,5096,435,6256,2,-2,?
2017-03-27 15:09:52.605000,479,7040,-31,536,-943,136,-701,1256,105,1056,426,792,-95,6320,453,320,-2428,5448,-73,728,390,48,-100,4664,1282,5096,442,6256,2,-2,?
2017-03-27 15:09:52.613000,481,7040,-28,536,-916,136,-704,1256,101,1056,426,792,-91,6320,454,320,-2440,5448,-79,728,398,48,-96,4664,1281,5096,459,6256,2,-1,?
2017-03-27 15:09:52.620000,483,7040,-35,536,-916,136,-710,1256,103,1056,438,792,-95,6320,465,320,-2440,5448,-71,728,406,48,-97,4664,1283,5096,464,6256,2,-2,?
2017-03-27 15:09:52.627000,471,7040,-39,536,-935,136,-706,1256,99,1056,433,792,-94,6320,463,320,-2434,5448,-73,728,396,48,-113,4664,1281,5096,448,6256,2,-1,?
2017-03-27 15:09:52.635000,455,7040,-34,536,-954,136,-719,1256,88,1056,431,792,-91,6320,456,320,-2441,5448,-80,728,376,48,-129,4664,1267,5096,427,6256,2,-1,?
2017-03-27 15:09:52.644000,460,7040,-34,536,-949,136,-731,1256,86,1056,440,792,-89,6320,464,320,-2432,5448,-60,728,367,48,-134,4664,1263,5096,419,6256,2,-1,?
2017-03-27 15:09:52.652000,467,7040,-36,536,-942,136,-714,1256,89,1056,436,792,-92,6320,468,320,-2420,5448,-62,728,369,48,-127,4664,1269,5096,423,6256,2,-1,?
2017-03-27 15:09:52.660000,463,7040,-33,536,-948,136,-704,1256,85,1056,432,792,-93,6320,461,320,-2420,5448,-102,728,368,48,-119,4664,1274,5096,424,6256,2,-1,?
2017-03-27 15:09:52.667000,461,7040,-34,536,-950,136,-729,1256,79,1056,430,792,-82,6320,461,320,-2411,5448,-121,728,357,48,-124,4664,1272,5096,418,6256,2,-1,?
2017-03-27 15:09:52.674000,455,7040,-39,536,-955,136,-736,1256,85,1056,423,792,-68,6320,462,320,-2405,5448,-126,728,347,48,-144,4664,1264,5096,416,6256,2,-1,?
2017-03-27 15:09:52.683000,450,7056,-40,536,-947,136,-707,1256,103,1056,422,792,-61,6320,458,320,-2405,5448,-135,728,354,48,-153,4664,1268,5096,426,6256,2,-1,?
2017-03-27 15:09:52.690000,466,7056,-40,528,-915,136,-692,1256,105,1056,430,792,-59,6320,465,320,-2404,5448,-131,728,370,48,-132,4664,1290,5096,441,6256,3,-2,?
2017-03-27 15:09:52.697000,489,7056,-40,528,-903,136,-704,1256,86,1056,431,792,-54,6320,475,320,-2395,5448,-126,728,372,48,-123,4664,1296,5096,444,6264,3,-2,?
2017-03-27 15:09:52.705000,489,7056,-39,528,-924,128,-724,1256,78,1056,424,792,-60,6320,472,320,-2381,5448,-127,728,357,48,-144,4664,1275,5096,430,6264,3,-2,?
2017-03-27 15:09:52.712000,484,7056,-35,528,-931,128,-740,1248,70,1056,420,792,-82,6320,463,320,-2387,5448,-125,728,348,48,-154,4664,1265,5096,422,6264,3,-2,?
2017-03-27 15:09:52.721000,491,7056,-30,528,-914,128,-732,1248,44,1072,418,792,-96,6320,454,320,-2399,5448,-126,728,355,48,-139,4664,1275,5096,435,6264,3,-2,?
2017-03-27 15:09:52.728000,485,7056,-34,528,-909,128,-715,1248,39,1072,422,784,-92,6320,454,320,-2383,5448,-121,728,359,48,-134,4664,1279,5096,445,6264,3,-2,?
2017-03-27 15:09:52.737000,480,7056,-37,528,-901,128,-708,1248,70,1072,435,784,-87,6328,471,320,-2357,5448,-97,728,364,48,-140,4664,1280,5096,450,6264,3,-2,?
2017-03-27 15:09:52.744000,491,7056,-32,528,-880,128,-697,1248,84,1072,433,784,-88,6328,479,328,-2361,5448,-84,728,378,48,-131,4664,1282,5096,458,6264,3,-2,?
2017-03-27 15:09:52.752000,485,7056,-31,528,-875,128,-691,1248,80,1072,428,784,-88,6328,466,328,-2369,5440,-83,728,380,48,-123,4664,1280,5096,463,6264,2,-2,?
2017-03-27 15:09:52.760000,471,7056,-37,528,-886,128,-697,1248,88,1072,433,784,-101,6328,460,328,-2352,5440,-79,712,369,48,-129,4664,1278,5096,460,6264,2,-2,?
2017-03-27 15:09:52.770000,476,7056,-40,528,-888,128,-688,1248,99,1072,432,784,-123,6328,463,328,-2350,5440,-74,712,363,32,-143,4664,1267,5096,457,6264,2,-2,?
2017-03-27 15:09:52.777000,484,7056,-37,528,-876,128,-666,1248,105,1072,432,784,-110,6328,461,328,-2349,5440,-55,712,364,32,-142,4640,1261,5096,465,6264,2,-2,?
2017-03-27 15:09:52.785000,483,7056,-33,528,-871,128,-673,1248,101,1072,439,784,-94,6328,463,328,-2336,5440,-47,712,368,32,-130,4640,1271,5112,475,6264,2,-2,?
2017-03-27 15:09:52.791000,485,7056,-33,528,-881,128,-691,1248,79,1072,418,784,-113,6328,464,328,-2333,5440,-79,720,361,32,-134,4640,1272,5112,471,6264,2,-2,?
2017-03-27 15:09:52.801000,489,7056,-35,528,-890,128,-688,1248,67,1072,398,784,-120,6328,463,328,-2328,5440,-112,720,349,48,-141,4640,1260,5112,464,6264,2,-2,?
2017-03-27 15:09:52.808000,486,7056,-33,528,-890,128,-687,1248,80,1072,420,784,-94,6328,465,328,-2317,5440,-113,720,354,48,-124,4640,1262,5112,464,6264,2,-2,?
2017-03-27 15:09:52.815000,481,7056,-33,528,-893,128,-697,1248,86,1072,434,784,-86,6328,469,328,-2318,5440,-106,720,365,48,-117,4640,1274,5112,464,6264,2,-2,?
2017-03-27 15:09:52.823000,482,7056,-37,528,-900,128,-700,1248,81,1072,426,784,-91,6328,466,328,-2315,5440,-110,720,362,48,-147,4640,1277,5112,470,6264,2,-2,?
2017-03-27 15:09:52.831000,488,7056,-42,528,-905,128,-695,1248,79,1072,431,784,-84,6328,467,328,-2298,5440,-116,720,359,48,-160,4640,1270,5112,477,6264,2,-2,?
2017-03-27 15:09:52.838000,489,7056,-43,528,-910,128,-699,1248,78,1072,441,784,-72,6328,471,328,-2297,5440,-128,720,360,48,-138,4640,1269,5112,468,6264,2,-2,?
2017-03-27 15:09:52.846000,483,7056,-40,528,-906,128,-702,1248,91,1072,452,784,-46,6328,472,328,-2295,5440,-131,720,360,48,-137,4640,1277,5112,465,6264,2,-1,?
2017-03-27 15:09:52.854000,484,7056,-33,528,-901,128,-698,1248,110,1072,467,784,-32,6328,477,328,-2270,5440,-120,720,364,48,-148,4640,1283,5112,480,6264,2,-1,?
2017-03-27 15:09:52.862000,492,7056,-31,528,-905,128,-695,1248,111,1072,465,784,-53,6328,471,328,-2268,5440,-110,720,364,48,-138,4640,1284,5112,486,6264,2,-1,?
2017-03-27 15:09:52.871000,500,7056,-40,528,-894,128,-686,1248,105,1072,453,784,-71,6328,460,328,-2277,5440,-105,720,368,48,-125,4640,1287,5112,488,6264,2,-1,?
2017-03-27 15:09:52.878000,500,7056,-39,528,-880,128,-682,1248,105,1072,448,784,-65,6328,470,328,-2264,5440,-101,720,376,48,-125,4640,1287,5112,496,6264,2,-1,?
2017-03-27 15:09:52.886000,494,7056,-34,528,-887,128,-682,1248,99,1072,439,784,-60,6328,478,328,-2255,5440,-93,720,375,48,-135,4640,1282,5112,502,6264,2,-1,?
2017-03-27 15:09:52.893000,499,7056,-36,528,-890,128,-677,1248,91,1072,434,784,-57,6328,470,328,-2252,5440,-77,720,376,48,-140,4640,1281,5112,507,6264,2,-1,?
2017-03-27 15:09:52.902000,501,7056,-38,528,-880,128,-670,1248,97,1072,444,784,-65,6328,467,328,-2244,5440,-68,720,377,48,-142,4640,1273,5112,499,6264,2,-1,?
2017-03-27 15:09:52.909000,491,7056,-37,528,-881,128,-676,1248,102,1072,437,784,-86,6328,474,328,-2244,5440,-69,720,363,48,-153,4640,1260,5112,481,6264,2,-1,?
2017-03-27 15:09:52.916000,492,7056,-35,528,-882,128,-686,1248,100,1072,421,784,-88,6328,472,328,-2251,5440,-68,720,358,48,-155,4640,1268,5112,490,6264,2,-2,?
2017-03-27 15:09:52.924000,500,7056,-32,528,-867,128,-677,1248,102,1072,424,784,-84,6328,468,328,-2249,5440,-74,720,371,48,-140,4640,1282,5112,512,6264,2,-2,?
2017-03-27 15:09:52.933000,495,7056,-31,528,-867,128,-675,1248,93,1072,422,784,-93,6328,466,328,-2246,5440,-98,720,356,48,-142,4640,1275,5112,502,6264,2,-2,?
2017-03-27 15:09:52.942000,489,7056,-34,528,-880,128,-693,1248,82,1072,417,784,-101,6328,462,328,-2249,5440,-121,720,335,48,-163,4640,1261,5112,482,6264,2,-2,?
2017-03-27 15:09:52.948000,488,7056,-35,528,-882,128,-702,1248,81,1072,424,784,-113,6328,462,328,-2248,5440,-132,720,336,48,-162,4640,1257,5112,487,6264,2,-2,?
2017-03-27 15:09:52.957000,473,7056,-37,528,-874,128,-690,1248,81,1072,418,784,-122,6328,470,328,-2244,5440,-138,720,332,48,-152,4640,1259,5112,495,6264,2,-2,?
2017-03-27 15:09:52.964000,471,7056,-36,528,-855,128,-681,1248,88,1072,415,784,-104,6328,473,328,-2232,5440,-131,720,334,48,-146,4640,1273,5112,500,6264,2,-2,?
2017-03-27 15:09:52.971000,492,7056,-30,528,-828,128,-678,1248,102,1072,439,784,-90,6328,470,328,-2212,5440,-114,720,362,48,-131,4640,1296,5112,515,6264,2,-2,?
2017-03-27 15:09:52.980000,501,7056,-31,528,-818,128,-667,1248,101,1072,440,784,-89,6328,477,328,-2202,5440,-101,720,377,48,-114,4640,1303,5112,525,6264,2,-2,?
2017-03-27 15:09:52.988000,493,7056,-38,528,-815,128,-664,1248,92,1072,412,784,-70,6328,481,328,-2197,5440,-94,720,363,48,-107,4640,1297,5112,523,6264,2,-2,?
2017-03-27 15:09:52.996000,488,7056,-38,528,-810,128,-673,1248,100,1072,419,784,-64,6328,477,328,-2180,5440,-91,720,360,48,-111,4640,1296,5112,516,6264,2,-2,?
2017-03-27 15:09:53.002000,488,7056,-33,528,-812,128,-669,1248,108,1072,447,784,-92,6328,478,328,-2168,5440,-96,720,366,48,-122,4640,1291,5112,511,6264,2,-2,?
2017-03-27 15:09:53.012000,488,7056,-34,528,-802,128,-653,1248,100,1072,439,784,-111,6328,474,328,-2184,5440,-98,720,362,48,-126,4640,1282,5112,517,6264,2,-2,?
2017-03-27 15:09:53.018000,487,7056,-37,528,-779,128,-661,1248,88,1072,424,784,-108,6328,466,328,-2200,5440,-91,720,360,48,-111,4640,1285,5112,528,6264,2,-2,?
2017-03-27 15:09:53.026000,480,7056,-34,528,-771,128,-678,1248,79,1072,435,784,-93,6328,473,328,-2184,5440,-87,720,364,48,-102,4640,1290,5112,523,6264,2,-2,?
2017-03-27 15:09:53.036000,479,7056,-32,528,-772,128,-674,1248,80,1072,445,784,-68,6328,485,328,-2164,5440,-69,720,369,48,-110,4640,1290,5112,513,6264,2,-1,?
2017-03-27 15:09:53.043000,490,7056,-33,528,-756,128,-670,1248,94,1072,444,784,-58,6328,478,328,-2166,5440,-37,720,380,48,-109,4640,1292,5112,523,6264,2,-1,?
2017-03-27 15:09:53.049000,502,7056,-34,528,-734,128,-681,1248,102,1072,441,784,-67,6328,468,328,-2163,5440,-27,720,394,48,-93,4640,1300,5112,541,6264,2,-1,?
2017-03-27 15:09:53.057000,513,7056,-32,528,-723,128,-676,1248,91,1072,438,784,-63,6328,473,328,-2144,5440,-45,720,398,48,-84,4640,1325,5112,547,6264,2,-1,?
2017-03-27 15:09:53.065000,517,7056,-28,528,-724,128,-664,1248,78,1072,435,784,-61,6328,477,328,-2144,5440,-71,720,396,48,-92,4640,1348,5112,548,6264,2,-1,?
2017-03-27 15:09:53.074000,506,7056,-30,528,-737,128,-680,1248,80,1072,422,784,-85,6328,467,328,-2166,5440,-100,720,389,48,-106,4640,1312,5112,544,6264,2,-1,?
2017-03-27 15:09:53.083000,498,7056,-36,528,-750,128,-705,1248,77,1072,407,784,-115,6328,455,328,-2177,5440,-136,720,362,48,-125,4640,1241,5112,526,6264,2,-1,?
2017-03-27 15:09:53.090000,497,7056,-40,528,-754,128,-697,1248,66,1072,424,784,-121,6328,459,328,-2163,5440,-157,720,328,48,-130,4640,1229,5112,510,6264,2,-1,?
2017-03-27 15:09:53.096000,489,7056,-37,528,-758,128,-686,1248,69,1072,441,784,-109,6328,471,328,-2144,5440,-157,720,317,48,-126,4640,1257,5112,509,6264,2,-1,?
2017-03-27 15:09:53.105000,497,7056,-33,528,-757,128,-692,1248,83,1072,414,784,-100,6328,477,328,-2133,5440,-146,720,339,48,-117,4640,1268,5112,521,6264,2,-2,?
2017-03-27 15:09:53.114000,526,7056,-34,528,-729,128,-667,1248,94,1072,406,784,-95,6328,483,328,-2129,5440,-129,720,370,48,-93,4640,1277,5112,544,6264,2,-2,?
2017-03-27 15:09:53.121000,531,7056,-35,528,-700,128,-640,1248,97,1072,433,784,-89,6328,478,328,-2130,5440,-136,720,368,48,-86,4640,1285,5112,556,6264,2,-2,?
2017-03-27 15:09:53.129000,506,7056,-33,528,-705,128,-664,1248,91,1072,421,784,-97,6328,464,328,-2136,5440,-165,720,347,48,-105,4640,1274,5112,551,6264,2,-3,?
2017-03-27 15:09:53.137000,498,7056,-32,528,-719,128,-685,1248,85,1072,400,784,-107,6328,468,328,-2133,5440,-159,720,355,48,-92,4640,1281,5112,551,6264,2,-3,?
2017-03-27 15:09:53.145000,501,7056,-34,528,-715,128,-667,1248,95,1072,422,784,-105,6328,479,328,-2124,5440,-128,720,370,48,-65,4640,1299,5112,550,6264,2,-2,?
2017-03-27 15:09:53.152000,498,7056,-31,528,-698,128,-660,1248,99,1072,432,784,-116,6328,469,328,-2128,5440,-132,720,362,48,-84,4640,1289,5112,548,6264,2,-2,?
2017-03-27 15:09:53.160000,511,7056,-30,528,-696,128,-670,1248,86,1072,419,784,-118,6328,466,328,-2125,5440,-143,720,368,48,-98,4640,1289,5112,562,6264,2,-2,?
2017-03-27 15:09:53.168000,528,7056,-32,528,-695,128,-663,1248,82,1072,421,784,-95,6328,479,328,-2102,5440,-112,720,381,48,-69,4640,1296,5112,571,6264,2,-2,?
2017-03-27 15:09:53.176000,517,7056,-32,528,-688,128,-660,1248,83,1072,410,784,-109,6328,470,328,-2103,5440,-87,720,369,48,-55,4640,1278,5112,570,6264,2,-2,?
2017-03-27 15:09:53.184000,507,7064,-32,528,-710,128,-675,1248,87,1072,415,784,-134,6328,457,328,-2103,5440,-90,720,368,48,-59,4640,1276,5112,579,6264,2,-3,?
2017-03-27 15:09:53.191000,522,7064,-33,520,-744,128,-687,1248,94,1072,441,784,-110,6328,464,328,-2069,5440,-91,720,391,48,-48,4640,1297,5112,592,6264,2,-4,?
2017-03-27 15:09:53.198000,538,7064,-29,520,-748,128,-668,1248,92,1072,423,784,-108,6328,469,328,-2048,5440,-108,720,399,48,-49,4640,1303,5112,598,6264,2,-4,?
2017-03-27 15:09:53.206000,541,7064,-25,520,-745,128,-641,1248,86,1072,408,784,-120,6328,476,328,-2047,5440,-137,720,392,48,-64,4640,1306,5112,607,6264,2,-4,?
2017-03-27 15:09:53.213000,533,7064,-28,520,-752,128,-653,1248,70,1072,424,784,-98,6328,474,328,-2019,5440,-133,720,395,48,-61,4640,1306,5112,610,6264,2,-4,?
2017-03-27 15:09:53.224000,516,7064,-32,520,-739,128,-675,1248,53,1080,395,784,-104,6328,452,328,-2007,5440,-105,720,394,48,-50,4640,1294,5112,604,6264,2,-4,?
2017-03-27 15:09:53.230000,517,7064,-30,520,-718,128,-658,1248,66,1080,358,784,-134,6328,452,328,-2036,5440,-85,720,398,48,-41,4640,1306,5112,605,6264,2,-3,?
2017-03-27 15:09:53.238000,533,7064,-28,520,-695,128,-635,1248,82,1080,371,784,-131,6328,464,328,-2037,5440,-70,720,419,48,-31,4640,1337,5112,619,6264,2,-2,?
2017-03-27 15:09:53.246000,534,7064,-31,520,-673,128,-641,1248,63,1080,388,784,-122,6328,461,288,-2007,5440,-67,720,425,48,-32,4640,1345,5112,633,6264,2,-2,?
2017-03-27 15:09:53.256000,528,7064,-32,520,-680,128,-657,1248,52,1080,388,784,-117,6328,460,288,-1989,5344,-79,720,413,48,-39,4640,1312,5112,633,6264,2,-2,?
2017-03-27 15:09:53.262000,539,7064,-30,520,-682,128,-648,1248,66,1080,386,784,-98,6328,468,288,-1973,5344,-82,720,418,48,-26,4640,1312,5112,630,6264,2,-2,?
2017-03-27 15:09:53.269000,563,7064,-27,520,-653,128,-618,1248,84,1080,390,784,-76,6328,466,288,-1931,5344,-71,720,438,48,-5,4640,1414,5112,649,6264,2,-2,?
2017-03-27 15:09:53.278000,563,7064,-23,520,-645,128,-616,1248,90,1080,407,784,-73,6328,459,288,-1917,5344,-95,720,427,48,-16,4664,1451,5112,659,6264,2,-1,?
2017-03-27 15:09:53.286000,541,7064,-27,520,-674,128,-647,1248,71,1080,408,784,-93,6328,458,288,-1934,5344,-127,720,400,48,-30,4664,1333,5088,639,6264,2,-1,?
2017-03-27 15:09:53.293000,546,7064,-31,520,-681,128,-650,1248,66,1080,399,784,-93,6328,467,288,-1864,5344,-118,728,409,48,-10,4664,1270,5088,631,6264,2,-1,?
2017-03-27 15:09:53.302000,565,7064,-25,520,-663,128,-636,1248,84,1080,415,784,-69,6328,480,288,-1745,5344,-96,728,435,56,27,4664,1327,5088,652,6264,2,0,?
2017-03-27 15:09:53.307000,561,7064,-23,520,-658,128,-646,1248,79,1080,428,784,-74,6328,474,288,-1741,5344,-98,728,430,56,55,4640,1339,5088,661,6264,2,-1,?
2017-03-27 15:09:53.315000,547,7064,-26,520,-668,128,-654,1248,61,1080,412,784,-86,6328,466,288,-1807,5344,-112,728,410,56,70,4640,1300,5088,636,6264,1,-1,?
2017-03-27 15:09:53.323000,532,7064,-30,520,-681,128,-644,1248,71,1080,407,784,-78,6328,473,288,-1817,5344,-147,728,392,56,65,4640,1294,5088,609,6264,1,-1,?
2017-03-27 15:09:53.332000,519,7064,-33,520,-690,128,-642,1248,84,1080,425,784,-75,6328,477,288,-1820,5344,-184,728,376,56,57,4640,1295,5088,605,6264,1,-1,?
2017-03-27 15:09:53.339000,518,7064,-29,520,-686,128,-648,1248,85,1080,444,784,-69,6328,479,288,-1860,5344,-174,728,381,56,78,4640,1296,5088,619,6264,1,-1,?
2017-03-27 15:09:53.348000,523,7064,-24,520,-674,128,-640,1248,94,1080,452,784,-57,6328,492,288,-1879,5344,-140,728,396,56,105,4640,1301,5088,628,6264,1,0,?
2017-03-27 15:09:53.354000,524,7064,-30,520,-666,128,-619,1248,95,1080,431,784,-60,6328,504,288,-1863,5344,-138,728,398,56,112,4640,1302,5088,627,6264,1,0,?
2017-03-27 15:09:53.363000,527,7064,-36,520,-677,128,-626,1248,79,1080,409,784,-66,6328,499,288,-1859,5344,-134,728,401,56,116,4640,1307,5088,627,6264,1,0,?
2017-03-27 15:09:53.371000,520,7064,-30,520,-710,128,-653,1248,74,1080,418,784,-74,6328,496,288,-1894,5344,-106,728,401,56,132,4640,1311,5088,620,6264,1,0,?
2017-03-27 15:09:53.378000,512,7064,-23,520,-720,128,-651,1248,82,1080,427,784,-88,6328,492,288,-1913,5344,-97,728,391,56,138,4640,1311,5088,618,6264,1,0,?
2017-03-27 15:09:53.388000,515,7064,-30,520,-686,128,-633,1248,82,1080,414,784,-100,6328,485,288,-1899,5344,-113,728,388,56,127,4640,1310,5088,627,6264,1,0,?
2017-03-27 15:09:53.394000,525,7064,-36,520,-679,128,-645,1248,83,1080,411,784,-114,6328,487,288,-1898,5344,-114,728,389,56,111,4640,1310,5088,632,6264,1,-1,?
2017-03-27 15:09:53.402000,533,7064,-29,520,-704,128,-654,1248,88,1080,418,784,-113,6328,489,288,-1905,5344,-100,728,383,56,96,4640,1312,5088,631,6264,1,-1,?
2017-03-27 15:09:53.409000,525,7064,-24,520,-704,128,-647,1248,87,1080,421,784,-99,6328,478,288,-1902,5344,-95,728,376,56,87,4640,1313,5088,630,6264,1,-1,?
2017-03-27 15:09:53.417000,517,7064,-26,520,-696,128,-649,1248,85,1080,426,784,-93,6328,474,288,-1910,5344,-87,728,375,56,90,4640,1316,5088,631,6264,1,-1,?
2017-03-27 15:09:53.424000,525,7064,-27,520,-693,128,-649,1248,77,1080,409,784,-103,6328,479,288,-1912,5344,-63,728,386,56,87,4640,1317,5088,633,6264,1,-1,?
2017-03-27 15:09:53.432000,526,7064,-28,520,-685,128,-652,1248,70,1080,388,784,-111,6328,476,288,-1900,5344,-53,728,392,56,67,4640,1313,5088,638,6264,1,-1,?
2017-03-27 15:09:53.442000,518,7064,-30,520,-687,128,-658,1248,75,1080,403,784,-104,6328,474,288,-1903,5344,-45,728,384,56,66,4640,1305,5088,638,6264,2,-2,?
2017-03-27 15:09:53.448000,511,7064,-30,520,-709,128,-655,1248,73,1080,422,784,-92,6328,474,288,-1908,5344,-23,728,379,56,77,4640,1302,5088,630,6264,2,-1,?
2017-03-27 15:09:53.456000,513,7064,-27,520,-710,128,-649,1248,68,1080,415,784,-77,6328,475,288,-1902,5344,-17,728,386,56,68,4640,1310,5088,630,6264,2,-1,?
2017-03-27 15:09:53.464000,526,7064,-27,520,-689,128,-656,1248,74,1080,415,784,-68,6328,478,288,-1884,5344,-28,728,399,56,64,4640,1324,5088,648,6264,2,-1,?
2017-03-27 15:09:53.471000,525,7064,-30,520,-685,128,-668,1248,80,1080,425,784,-76,6328,471,288,-1875,5344,-32,728,400,56,71,4640,1326,5088,654,6264,2,-1,?
2017-03-27 15:09:53.478000,511,7064,-31,520,-696,128,-665,1248,77,1080,422,784,-85,6328,461,288,-1883,5344,-42,728,386,56,53,4640,1319,5088,634,6264,2,-1,?
2017-03-27 15:09:53.486000,510,7064,-27,520,-702,128,-657,1248,76,1080,412,784,-80,6328,467,288,-1882,5344,-59,728,380,56,28,4640,1317,5088,625,6264,2,-1,?
2017-03-27 15:09:53.494000,511,7064,-28,520,-702,128,-661,1248,73,1080,409,784,-83,6328,465,288,-1879,5344,-65,728,381,56,33,4640,1319,5088,631,6264,2,-2,?
2017-03-27 15:09:53.503000,509,7064,-34,520,-711,128,-671,1248,73,1080,418,784,-94,6328,452,288,-1879,5344,-80,728,372,56,35,4640,1313,5088,627,6264,2,-2,?
2017-03-27 15:09:53.511000,510,7064,-35,520,-719,128,-676,1248,78,1080,422,784,-92,6328,459,288,-1866,5344,-103,728,364,56,16,4640,1296,5088,620,6264,2,-2,?
2017-03-27 15:09:53.519000,500,7064,-32,520,-713,128,-679,1248,82,1080,418,784,-84,6328,467,288,-1859,5344,-118,728,359,56,-2,4640,1288,5088,613,6264,2,-2,?
2017-03-27 15:09:53.526000,487,7064,-36,520,-710,128,-680,1248,75,1080,411,784,-83,6328,463,288,-1880,5344,-137,728,346,56,-3,4640,1296,5088,603,6264,2,-2,?
2017-03-27 15:09:53.538000,493,7064,-39,520,-728,128,-674,1248,81,1080,416,784,-82,6328,467,288,-1881,5344,-143,728,337,56,-4,4640,1300,5088,595,6264,2,-2,?
2017-03-27 15:09:53.544000,499,7064,-33,520,-737,128,-668,1248,99,1080,425,784,-82,6328,469,288,-1859,5344,-133,728,341,56,-12,4640,1296,5088,594,6264,2,-2,?
2017-03-27 15:09:53.552000,502,7064,-31,520,-710,128,-675,1248,84,1080,417,784,-96,6328,462,288,-1861,5344,-134,728,345,56,-25,4640,1293,5088,598,6264,2,-2,?
2017-03-27 15:09:53.560000,516,7064,-33,520,-693,128,-679,1248,60,1080,402,784,-108,6328,463,288,-1858,5344,-130,728,345,56,-29,4640,1294,5088,605,6264,2,-2,?
2017-03-27 15:09:53.567000,523,7064,-32,520,-707,128,-670,1248,70,1080,395,784,-96,6328,469,288,-1840,5344,-99,728,353,56,-18,4640,1304,5088,609,6264,2,-2,?
2017-03-27 15:09:53.573000,517,7064,-32,520,-709,128,-664,1248,85,1080,402,784,-88,6328,473,288,-1834,5344,-73,728,363,56,-16,4640,1306,5088,614,6264,2,-2,?
2017-03-27 15:09:53.582000,517,7064,-35,520,-689,128,-668,1248,80,1080,415,784,-92,6328,469,288,-1832,5344,-65,728,361,56,-25,4640,1304,5088,613,6264,2,-2,?
2017-03-27 15:09:53.589000,518,7064,-36,520,-689,128,-668,1248,79,1080,414,784,-84,6328,461,288,-1829,5344,-64,728,351,56,-30,4640,1309,5088,608,6264,2,-2,?
2017-03-27 15:09:53.598000,516,7064,-32,520,-702,128,-655,1248,90,1080,417,784,-84,6328,472,288,-1830,5344,-71,728,354,56,-42,4640,1310,5088,612,6264,2,-2,?
2017-03-27 15:09:53.605000,521,7064,-31,520,-691,128,-637,1248,108,1080,437,784,-89,6328,487,288,-1820,5344,-80,728,362,56,-74,4640,1307,5088,622,6264,2,-2,?
2017-03-27 15:09:53.612000,525,7064,-36,520,-680,128,-642,1248,101,1080,433,784,-87,6328,467,288,-1800,5344,-83,728,354,56,-108,4640,1311,5088,619,6264,2,-2,?
2017-03-27 15:09:53.621000,512,7064,-36,520,-693,128,-673,1248,70,1080,398,784,-106,6328,445,288,-1813,5344,-97,728,338,56,-130,4640,1307,5088,603,6264,2,-2,?
2017-03-27 15:09:53.628000,490,7064,-32,520,-708,128,-675,1248,73,1080,396,784,-132,6328,458,288,-1832,5344,-122,728,325,56,-140,4640,1289,5088,596,6264,2,-2,?
2017-03-27 15:09:53.637000,486,7064,-33,520,-706,128,-650,1248,98,1080,418,784,-121,6328,476,288,-1816,5344,-122,728,321,56,-148,4640,1285,5088,597,6264,2,-1,?
2017-03-27 15:09:53.646000,505,7064,-32,520,-690,128,-644,1248,100,1080,405,784,-100,6328,473,288,-1792,5344,-102,728,320,56,-161,4640,1293,5088,598,6264,2,-1,?
2017-03-27 15:09:53.652000,524,7064,-27,520,-673,128,-646,1248,96,1080,387,784,-96,6328,472,288,-1793,5344,-101,728,327,56,-162,4640,1300,5088,609,6264,2,-1,?
2017-03-27 15:09:53.662000,523,7064,-30,520,-672,128,-637,1248,93,1080,402,784,-93,6328,472,288,-1797,5344,-98,728,337,56,-146,4640,1301,5088,620,6264,2,-1,?
2017-03-27 15:09:53.668000,514,7064,-35,520,-683,128,-639,1248,84,1080,411,784,-93,6328,451,288,-1785,5344,-91,728,328,56,-156,4640,1293,5088,614,6264,2,-1,?
2017-03-27 15:09:53.675000,516,7064,-30,520,-682,128,-658,1248,79,1080,397,784,-93,6328,438,288,-1772,5344,-102,728,315,56,-173,4640,1292,5088,609,6264,2,-1,?
2017-03-27 15:09:53.684000,520,7064,-31,520,-675,128,-672,1248,76,1080,377,784,-97,6328,443,288,-1766,5344,-100,728,322,56,-161,4640,1305,5088,613,6264,2,-1,?
2017-03-27 15:09:53.693000,521,7056,-39,520,-685,128,-671,1248,73,1080,370,784,-111,6328,437,288,-1774,5344,-87,728,327,56,-151,4640,1310,5088,607,6264,2,-1,?
2017-03-27 15:09:53.699000,519,7056,-34,536,-685,128,-667,1248,79,1080,391,784,-111,6328,432,288,-1779,5344,-87,728,318,56,-162,4640,1299,5088,601,6264,2,-1,?
2017-03-27 15:09:53.707000,520,7056,-28,536,-661,128,-669,1248,86,1080,408,784,-105,6328,443,288,-1756,5344,-73,728,324,56,-163,4640,1296,5088,608,6240,2,-1,?
2017-03-27 15:09:53.715000,525,7056,-35,536,-653,128,-672,1248,77,1080,388,784,-116,6328,448,288,-1751,5344,-38,728,344,56,-152,4640,1304,5088,616,6240,2,-1,?
2017-03-27 15:09:53.722000,523,7056,-36,536,-660,128,-676,1272,62,1080,375,784,-128,6328,453,288,-1766,5344,-28,728,343,56,-166,4640,1300,5088,611,6240,2,-1,?
2017-03-27 15:09:53.731000,517,7056,-31,536,-657,128,-677,1272,75,1064,405,784,-120,6328,466,288,-1752,5344,-48,728,336,56,-186,4640,1294,5088,604,6240,2,-1,?
2017-03-27 15:09:53.740000,516,7056,-31,536,-657,128,-673,1272,97,1064,417,776,-114,6328,475,288,-1728,5344,-66,728,345,56,-179,4640,1297,5088,607,6240,2,-1,?
2017-03-27 15:09:53.746000,523,7056,-34,536,-657,128,-673,1272,95,1064,403,776,-112,6328,490,288,-1730,5344,-73,728,357,56,-175,4640,1306,5088,612,6240,2,-1,?
2017-03-27 15:09:53.754000,528,7056,-36,536,-654,128,-674,1272,88,1064,400,776,-100,6328,494,288,-1743,5344,-70,728,357,56,-189,4640,1317,5088,606,6240,2,-1,?
2017-03-27 15:09:53.762000,524,7056,-38,536,-660,128,-676,1272,84,1064,399,776,-101,6328,485,288,-1736,5304,-76,728,353,56,-192,4640,1309,5088,603,6240,2,-1,?
2017-03-27 15:09:53.772000,514,7056,-38,536,-671,128,-685,1272,77,1064,391,776,-111,6328,492,288,-1719,5304,-79,728,347,56,-186,4640,1274,5088,599,6240,2,-1,?
2017-03-27 15:09:53.779000,513,7056,-31,536,-663,128,-687,1272,84,1064,404,776,-105,6328,496,288,-1731,5304,-73,728,340,32,-201,4640,1252,5088,595,6240,2,-1,?
2017-03-27 15:09:53.786000,522,7056,-30,536,-661,128,-680,1272,100,1064,425,776,-87,6328,489,288,-1752,5304,-75,728,345,32,-215,4680,1262,5088,598,6240,2,-1,?
2017-03-27 15:09:53.793000,525,7056,-37,536,-671,128,-682,1272,93,1064,415,776,-80,6328,495,288,-1737,5304,-67,728,356,32,-210,4680,1274,5112,603,6240,2,-1,?
2017-03-27 15:09:53.801000,522,7056,-38,536,-668,128,-686,1272,85,1064,418,776,-83,6328,505,288,-1712,5304,-52,720,367,32,-200,4680,1283,5112,606,6240,2,-1,?
2017-03-27 15:09:53.809000,524,7056,-34,536,-653,128,-680,1272,95,1064,441,776,-84,6328,499,288,-1708,5304,-50,720,370,40,-195,4680,1287,5112,614,6240,2,-1,?
2017-03-27 15:09:53.818000,528,7056,-32,536,-646,128,-674,1272,104,1064,435,776,-90,6328,490,288,-1698,5304,-53,720,367,40,-205,4680,1283,5112,619,6240,2,-1,?
2017-03-27 15:09:53.826000,528,7056,-32,536,-648,128,-674,1272,104,1064,420,776,-88,6328,489,288,-1680,5304,-51,720,366,40,-215,4680,1297,5112,615,6240,2,-1,?
2017-03-27 15:09:53.833000,526,7056,-33,536,-649,128,-675,1272,99,1064,424,776,-82,6328,495,288,-1695,5304,-43,720,364,40,-216,4680,1326,5112,614,6240,2,-1,?
2017-03-27 15:09:53.841000,518,7056,-33,536,-656,128,-673,1272,93,1064,423,776,-90,6328,501,288,-1710,5304,-44,720,353,40,-221,4680,1327,5112,606,6240,2,-1,?
2017-03-27 15:09:53.848000,511,7056,-32,536,-663,128,-668,1272,95,1064,414,776,-86,6328,502,288,-1680,5304,-50,720,344,40,-225,4680,1307,5112,601,6240,2,-2,?
2017-03-27 15:09:53.859000,520,7056,-34,536,-644,128,-668,1272,103,1064,423,776,-64,6328,506,288,-1655,5304,-24,720,359,40,-215,4680,1304,5112,612,6240,2,-2,?
2017-03-27 15:09:53.865000,530,7056,-36,536,-633,128,-677,1272,105,1064,435,776,-67,6328,502,288,-1664,5304,7,720,363,40,-210,4680,1312,5112,619,6240,2,-2,?
2017-03-27 15:09:53.872000,523,7056,-34,536,-652,128,-675,1272,102,1064,437,776,-84,6328,490,288,-1673,5304,-18,720,353,40,-221,4680,1304,5112,612,6240,2,-2,?
2017-03-27 15:09:53.879000,521,7056,-34,536,-654,128,-663,1272,103,1064,430,776,-73,6328,495,288,-1673,5304,-54,720,362,40,-220,4680,1298,5112,617,6240,2,-2,?
2017-03-27 15:09:53.887000,530,7056,-36,536,-639,128,-664,1272,108,1064,416,776,-62,6328,506,288,-1670,5304,-47,720,373,40,-211,4680,1307,5112,627,6240,2,-2,?
2017-03-27 15:09:53.894000,526,7056,-35,536,-647,128,-671,1272,104,1064,408,776,-73,6328,506,288,-1649,5304,-52,720,366,40,-217,4680,1305,5112,617,6240,2,-2,?
2017-03-27 15:09:53.901000,509,7056,-33,536,-667,128,-671,1272,94,1064,415,776,-81,6328,501,288,-1639,5304,-81,720,354,40,-225,4680,1293,5112,603,6240,2,-2,?
2017-03-27 15:09:53.912000,504,7056,-33,536,-674,128,-668,1272,93,1064,414,776,-100,6328,505,288,-1651,5304,-83,720,347,40,-230,4680,1290,5112,601,6240,2,-2,?
2017-03-27 15:09:53.917000,512,7056,-33,536,-668,128,-671,1272,89,1064,398,776,-130,6328,504,288,-1647,5304,-68,720,344,40,-239,4680,1292,5112,605,6240,2,-2,?
2017-03-27 15:09:53.924000,517,7056,-35,536,-662,128,-676,1272,78,1064,391,776,-136,6328,487,288,-1645,5304,-72,720,349,40,-243,4680,1291,5112,605,6240,2,-1,?
2017-03-27 15:09:53.935000,526,7056,-38,536,-655,128,-681,1272,72,1064,398,776,-126,6328,483,288,-1653,5304,-75,720,361,40,-227,4680,1295,5112,613,6240,2,-1,?
2017-03-27 15:09:53.941000,544,7056,-35,536,-641,128,-680,1272,73,1064,397,776,-118,6328,500,288,-1651,5304,-47,720,383,40,-211,4680,1301,5112,635,6240,2,-1,?
2017-03-27 15:09:53.949000,551,7056,-30,536,-623,128,-684,1272,66,1064,387,776,-118,6328,501,288,-1649,5304,-21,720,401,40,-227,4680,1300,5112,647,6240,2,-1,?
2017-03-27 15:09:53.956000,547,7056,-31,536,-619,128,-700,1272,51,1064,378,776,-129,6328,490,288,-1654,5304,-36,720,397,40,-253,4680,1297,5112,649,6240,2,-1,?
2017-03-27 15:09:53.964000,560,7056,-32,536,-610,128,-696,1272,55,1064,379,776,-133,6328,496,288,-1651,5304,-46,720,408,40,-243,4680,1304,5112,671,6240,2,-1,?
2017-03-27 15:09:53.975000,591,7056,-31,536,-569,128,-672,1272,67,1064,387,776,-124,6328,506,288,-1634,5304,-16,720,446,40,-208,4680,1317,5112,702,6240,2,-1,?
2017-03-27 15:09:53.980000,594,7056,-30,536,-523,128,-676,1272,65,1064,384,776,-119,6328,502,288,-1626,5304,-10,720,457,40,-212,4680,1317,5112,710,6240,2,-1,?
2017-03-27 15:09:53.990000,578,7056,-31,536,-502,128,-696,1272,61,1064,370,776,-125,6328,490,288,-1645,5304,-33,720,444,40,-253,4680,1301,5112,709,6240,2,-1,?
2017-03-27 15:09:53.996000,591,7056,-27,536,-485,128,-686,1272,64,1064,368,776,-135,6328,480,288,-1662,5304,-28,720,454,40,-265,4680,1289,5112,723,6240,2,-1,?
2017-03-27 15:09:54.004000,613,7056,-25,536,-455,128,-670,1272,52,1064,361,776,-146,6328,481,288,-1656,5304,-28,720,478,40,-248,4680,1304,5112,749,6240,2,-1,?
2017-03-27 15:09:54.012000,616,7056,-31,536,-425,128,-675,1272,33,1064,345,776,-151,6328,493,288,-1661,5304,-72,720,495,40,-250,4680,1325,5112,771,6240,2,-1,?
2017-03-27 15:09:54.022000,627,7056,-31,536,-407,128,-676,1272,41,1064,354,776,-153,6328,500,288,-1670,5304,-102,720,506,40,-268,4680,1330,5112,788,6240,2,-1,?
2017-03-27 15:09:54.028000,649,7056,-29,536,-384,128,-668,1272,51,1064,372,776,-161,6328,501,288,-1660,5304,-99,720,516,40,-269,4680,1348,5112,807,6240,2,-1,?
2017-03-27 15:09:54.034000,648,7056,-31,536,-366,128,-675,1272,47,1064,357,776,-173,6328,500,288,-1658,5304,-108,720,525,40,-270,4680,1384,5112,819,6240,2,-1,?
2017-03-27 15:09:54.043000,625,7056,-35,536,-378,128,-686,1272,35,1064,341,776,-182,6328,497,288,-1671,5304,-130,720,525,40,-282,4680,1380,5112,807,6240,2,-1,?
2017-03-27 15:09:54.051000,619,7056,-33,536,-382,128,-683,1272,33,1064,352,776,-175,6328,498,288,-1659,5304,-137,720,516,40,-284,4680,1351,5112,796,6240,2,-1,?
2017-03-27 15:09:54.058000,635,7056,-27,536,-363,128,-678,1272,40,1064,357,776,-161,6328,503,288,-1633,5304,-139,720,513,40,-284,4680,1353,5112,805,6240,2,-1,?
2017-03-27 15:09:54.066000,640,7056,-29,536,-369,128,-675,1272,40,1064,350,776,-163,6328,504,288,-1636,5304,-147,720,516,40,-298,4680,1354,5112,805,6240,2,-1,?
2017-03-27 15:09:54.074000,626,7056,-34,536,-394,128,-674,1272,41,1064,361,776,-163,6328,498,288,-1652,5304,-148,720,511,40,-310,4680,1329,5112,786,6240,2,-1,?
2017-03-27 15:09:54.082000,617,7056,-33,536,-395,128,-674,1272,45,1064,376,776,-161,6328,495,288,-1651,5304,-149,720,500,40,-309,4680,1304,5112,778,6240,2,-1,?
2017-03-27 15:09:54.089000,618,7056,-31,536,-403,128,-681,1272,41,1064,369,776,-172,6328,499,288,-1641,5304,-159,720,491,40,-305,4680,1287,5112,783,6240,2,-1,?
2017-03-27 15:09:54.099000,612,7056,-30,536,-442,128,-689,1272,33,1064,359,776,-169,6328,505,288,-1628,5304,-156,720,488,40,-296,4680,1277,5112,780,6240,2,-1,?
2017-03-27 15:09:54.106000,595,7056,-29,536,-489,128,-691,1272,37,1064,373,776,-146,6328,508,288,-1619,5304,-148,720,474,40,-298,4680,1275,5112,756,6240,2,-1,?
2017-03-27 15:09:54.114000,583,7056,-30,536,-531,128,-697,1272,44,1064,388,776,-142,6328,506,288,-1613,5304,-155,720,451,40,-316,4680,1277,5112,733,6240,2,-1,?
2017-03-27 15:09:54.122000,581,7056,-34,536,-545,128,-701,1272,46,1064,378,776,-148,6328,504,288,-1603,5304,-139,720,450,40,-312,4680,1290,5112,736,6240,2,-1,?
2017-03-27 15:09:54.129000,583,7056,-33,536,-529,128,-686,1272,39,1064,359,776,-143,6328,502,288,-1601,5304,-96,720,462,40,-287,4680,1308,5112,746,6240,2,-1,?
2017-03-27 15:09:54.137000,597,7056,-27,536,-519,128,-669,1272,31,1064,346,776,-155,6328,500,288,-1606,5304,-90,720,465,40,-279,4680,1320,5112,746,6240,2,-1,?
2017-03-27 15:09:54.146000,613,7056,-27,536,-531,128,-686,1272,26,1064,334,776,-174,6328,502,288,-1602,5304,-123,720,461,40,-286,4680,1320,5112,738,6240,2,-1,?
2017-03-27 15:09:54.154000,597,7056,-30,536,-558,128,-711,1272,25,1064,343,776,-176,6328,507,288,-1595,5304,-151,720,447,40,-291,4680,1311,5112,720,6240,2,-1,?
2017-03-27 15:09:54.164000,575,7056,-32,536,-573,128,-708,1272,35,1064,370,776,-159,6328,509,288,-1587,5304,-163,720,433,40,-287,4680,1313,5112,698,6240,2,-1,?
2017-03-27 15:09:54.170000,576,7056,-34,536,-568,128,-696,1272,49,1064,387,776,-136,6328,517,288,-1575,5304,-167,720,438,40,-281,4680,1322,5112,699,6240,2,-1,?
2017-03-27 15:09:54.175000,577,7056,-35,536,-569,128,-691,1272,53,1064,400,776,-112,6328,524,288,-1582,5304,-174,720,438,40,-288,4680,1318,5112,709,6240,2,-1,?
2017-03-27 15:09:54.184000,576,7056,-36,536,-578,128,-684,1272,53,1064,408,776,-95,6328,519,288,-1591,5304,-176,720,430,40,-295,4680,1311,5112,707,6240,2,-1,?
2017-03-27 15:09:54.192000,596,7064,-37,536,-567,128,-681,1272,47,1064,383,776,-104,6328,513,288,-1572,5304,-160,720,437,40,-284,4680,1320,5112,712,6240,2,-1,?
2017-03-27 15:09:54.199000,613,7064,-30,584,-552,128,-687,1272,31,1064,341,776,-141,6328,507,288,-1565,5304,-150,720,446,40,-276,4680,1331,5112,719,6240,2,-2,?
2017-03-27 15:09:54.208000,611,7064,-25,584,-561,128,-684,1272,29,1064,331,776,-182,6328,500,288,-1584,5304,-169,720,447,40,-280,4680,1335,5112,717,6264,2,-1,?
2017-03-27 15:09:54.216000,607,7064,-31,584,-573,144,-681,1272,47,1064,358,776,-193,6328,501,288,-1585,5304,-173,720,446,40,-276,4680,1337,5112,713,6264,2,-2,?
2017-03-27 15:09:54.225000,608,7064,-34,584,-573,144,-686,1272,53,1064,391,776,-158,6328,513,288,-1567,5304,-165,720,440,40,-270,4680,1327,5112,712,6264,2,-2,?
2017-03-27 15:09:54.231000,598,7064,-31,584,-578,144,-688,1272,49,1056,408,776,-122,6328,518,288,-1566,5304,-198,720,421,40,-293,4680,1313,5112,702,6264,2,-2,?
2017-03-27 15:09:54.240000,583,7064,-34,584,-589,144,-689,1272,53,1056,410,784,-110,6328,513,288,-1576,5304,-196,720,413,40,-314,4680,1310,5112,694,6264,2,-2,?
2017-03-27 15:09:54.247000,579,7064,-40,584,-600,144,-694,1272,60,1056,417,784,-98,6312,507,288,-1577,5304,-135,720,426,40,-298,4680,1317,5112,702,6264,2,-2,?
2017-03-27 15:09:54.255000,583,7064,-38,584,-606,144,-702,1272,60,1056,418,784,-83,6312,508,304,-1567,5304,-112,720,442,40,-281,4680,1320,5112,709,6264,2,-2,?
2017-03-27 15:09:54.262000,591,7064,-30,584,-610,144,-704,1272,53,1056,399,784,-89,6312,512,304,-1551,5272,-90,720,461,40,-285,4680,1326,5112,716,6264,2,-2,?
2017-03-27 15:09:54.269000,612,7064,-28,584,-612,144,-702,1272,46,1056,374,784,-110,6312,506,304,-1531,5272,-12,720,500,40,-252,4680,1349,5112,739,6264,2,-2,?
2017-03-27 15:09:54.278000,625,7064,-33,584,-623,144,-702,1272,39,1056,360,784,-142,6312,496,304,-1525,5272,23,720,537,32,-207,4680,1372,5112,757,6264,2,-1,?
2017-03-27 15:09:54.286000,624,7064,-31,584,-636,144,-702,1272,37,1056,361,784,-170,6312,503,304,-1531,5272,14,720,544,32,-211,4680,1374,5112,756,6264,2,-1,?
2017-03-27 15:09:54.293000,618,7064,-31,584,-647,144,-710,1272,48,1056,387,784,-154,6312,518,304,-1526,5272,47,720,550,32,-224,4680,1364,5112,758,6264,2,-2,?
2017-03-27 15:09:54.301000,602,7064,-37,584,-680,144,-724,1272,56,1056,425,784,-110,6312,517,304,-1518,5272,79,712,551,32,-208,4680,1353,5112,754,6264,2,-2,?
2017-03-27 15:09:54.309000,576,7064,-34,584,-717,144,-734,1272,46,1056,432,784,-85,6312,520,304,-1514,5272,94,712,543,32,-193,4680,1347,5112,737,6264,2,-2,?
2017-03-27 15:09:54.316000,574,7064,-31,584,-724,144,-735,1272,40,1056,416,784,-84,6312,525,304,-1503,5272,139,712,549,32,-184,4672,1351,5112,739,6264,2,-2,?
2017-03-27 15:09:54.325000,590,7064,-34,584,-726,144,-736,1272,47,1056,400,784,-87,6312,520,304,-1497,5272,188,712,569,32,-168,4672,1360,5112,756,6264,2,-2,?
2017-03-27 15:09:54.334000,589,7064,-35,584,-759,144,-740,1272,38,1056,380,784,-94,6312,517,304,-1501,5272,219,712,582,32,-149,4672,1363,5112,750,6264,2,-2,?
2017-03-27 15:09:54.340000,575,7064,-35,584,-792,144,-745,1272,17,1056,366,784,-113,6312,516,304,-1491,5272,248,712,573,32,-141,4672,1358,5112,724,6264,2,-2,?
2017-03-27 15:09:54.348000,570,7064,-35,584,-799,144,-743,1272,23,1056,357,784,-137,6312,515,304,-1473,5272,281,712,566,32,-134,4672,1360,5112,717,6264,2,-2,?
2017-03-27 15:09:54.358000,580,7064,-32,584,-801,144,-730,1272,38,1056,360,784,-150,6312,520,304,-1460,5272,319,712,584,32,-123,4672,1376,5112,733,6264,2,-2,?
2017-03-27 15:09:54.365000,585,7064,-30,584,-814,144,-726,1272,38,1056,368,784,-138,6312,526,304,-1443,5272,350,712,598,32,-109,4672,1383,5112,740,6264,2,-2,?
2017-03-27 15:09:54.373000,576,7064,-35,584,-833,144,-728,1272,32,1056,374,784,-119,6312,523,304,-1436,5272,370,712,583,32,-94,4672,1372,5112,720,6264,2,-2,?
2017-03-27 15:09:54.380000,564,7064,-33,584,-850,144,-728,1272,38,1056,393,784,-115,6312,528,304,-1442,5272,392,712,565,32,-88,4672,1361,5112,693,6264,2,-2,?
2017-03-27 15:09:54.390000,557,7064,-31,584,-868,144,-731,1272,57,1056,417,784,-103,6312,537,304,-1430,5272,419,712,564,32,-88,4672,1365,5112,682,6264,2,-2,?
2017-03-27 15:09:54.395000,556,7064,-34,584,-872,144,-734,1272,70,1056,421,784,-61,6312,538,304,-1402,5272,462,712,562,32,-69,4672,1370,5112,682,6264,2,-2,?
2017-03-27 15:09:54.404000,558,7064,-38,584,-863,144,-732,1272,70,1056,416,784,-28,6312,535,304,-1396,5272,499,712,555,32,-55,4672,1373,5112,679,6264,2,-2,?
2017-03-27 15:09:54.411000,556,7064,-38,584,-859,144,-723,1272,68,1056,420,784,-35,6312,536,304,-1399,5272,478,712,546,32,-62,4672,1372,5112,670,6264,2,-2,?
2017-03-27 15:09:54.420000,547,7064,-33,584,-866,144,-726,1272,64,1056,410,784,-65,6312,537,304,-1397,5272,422,712,529,32,-64,4672,1363,5112,656,6264,2,-2,?
2017-03-27 15:09:54.428000,537,7064,-30,584,-872,144,-735,1272,48,1056,387,784,-99,6312,526,304,-1405,5272,394,712,519,32,-64,4672,1355,5112,642,6264,2,-2,?
2017-03-27 15:09:54.434000,534,7064,-34,584,-866,144,-735,1272,43,1056,375,784,-118,6312,520,304,-1408,5272,376,712,512,32,-82,4672,1355,5112,633,6264,2,-2,?
2017-03-27 15:09:54.444000,530,7064,-36,584,-864,144,-734,1272,52,1056,389,784,-130,6312,527,304,-1404,5272,341,712,491,32,-96,4672,1354,5112,620,6264,2,-2,?
2017-03-27 15:09:54.450000,524,7064,-35,584,-869,144,-734,1272,58,1056,410,784,-130,6312,526,304,-1412,5272,309,712,476,32,-97,4672,1355,5112,603,6264,2,-2,?
2017-03-27 15:09:54.457000,531,7064,-31,584,-866,144,-722,1272,66,1056,415,784,-85,6312,526,304,-1411,5272,297,712,486,32,-95,4672,1366,5112,601,6264,2,-2,?
2017-03-27 15:09:54.465000,544,7064,-32,584,-847,144,-700,1272,77,1056,430,784,-23,6312,537,304,-1380,5272,308,712,492,32,-84,4672,1371,5112,616,6264,2,-2,?
2017-03-27 15:09:54.473000,543,7064,-38,584,-840,144,-709,1272,84,1056,453,784,-12,6312,540,304,-1366,5272,315,712,482,32,-75,4672,1365,5112,610,6264,2,-2,?
2017-03-27 15:09:54.480000,524,7064,-37,584,-850,144,-727,1272,85,1056,448,784,-30,6312,525,304,-1381,5272,287,712,475,32,-86,4672,1355,5112,587,6264,2,-2,?
2017-03-27 15:09:54.489000,516,7064,-33,584,-854,144,-722,1272,76,1056,432,784,-32,6312,513,304,-1391,5272,254,712,471,32,-102,4672,1355,5112,584,6264,2,-1,?
2017-03-27 15:09:54.496000,532,7064,-34,584,-847,144,-721,1272,68,1056,431,784,-46,6312,522,304,-1380,5272,255,712,469,32,-105,4672,1361,5112,596,6264,2,-1,?
2017-03-27 15:09:54.504000,546,7064,-35,584,-832,144,-725,1272,71,1056,424,784,-69,6312,533,304,-1367,5272,267,712,478,32,-101,4672,1368,5112,604,6264,2,-1,?
2017-03-27 15:09:54.512000,549,7064,-39,584,-817,144,-720,1272,78,1056,423,784,-73,6312,528,304,-1364,5272,259,712,483,32,-102,4672,1377,5112,600,6264,2,-1,?
2017-03-27 15:09:54.520000,552,7064,-38,584,-800,144,-707,1272,83,1056,443,784,-52,6312,527,304,-1354,5272,269,712,485,32,-94,4672,1383,5112,602,6264,2,-1,?
2017-03-27 15:09:54.528000,555,7064,-31,584,-782,144,-700,1272,90,1056,449,784,-35,6312,537,304,-1331,5272,332,712,498,32,-69,4672,1383,5112,614,6264,2,-1,?
2017-03-27 15:09:54.535000,553,7064,-33,584,-786,144,-699,1272,96,1056,440,784,-31,6312,540,304,-1319,5272,404,712,506,32,-51,4672,1390,5112,626,6264,2,-1,?
2017-03-27 15:09:54.544000,559,7064,-39,584,-812,144,-695,1272,103,1056,447,784,-18,6312,536,304,-1329,5272,416,712,505,32,-52,4672,1387,5112,627,6264,2,-1,?
2017-03-27 15:09:54.553000,563,7064,-36,584,-830,144,-689,1272,102,1056,459,784,-8,6312,531,304,-1339,5272,370,712,502,32,-60,4672,1369,5112,622,6264,2,-1,?
2017-03-27 15:09:54.560000,560,7064,-33,584,-827,144,-684,1272,96,1056,452,784,-15,6312,531,304,-1333,5272,343,712,501,32,-55,4672,1380,5112,622,6264,2,-2,?
2017-03-27 15:09:54.567000,556,7064,-35,584,-832,144,-689,1272,97,1056,438,784,-21,6312,541,304,-1318,5272,346,712,497,32,-43,4672,1406,5112,614,6264,2,-2,?
2017-03-27 15:09:54.575000,546,7064,-32,584,-848,144,-693,1272,93,1056,435,784,-24,6312,540,304,-1313,5272,329,712,488,32,-47,4672,1399,5112,603,6264,2,-2,?
2017-03-27 15:09:54.583000,538,7064,-31,584,-850,144,-696,1272,93,1056,444,784,-36,6312,531,304,-1325,5272,298,712,474,32,-61,4672,1383,5112,603,6264,2,-2,?
2017-03-27 15:09:54.591000,531,7064,-37,584,-859,144,-698,1272,97,1056,444,784,-38,6312,532,304,-1334,5272,282,712,460,32,-73,4672,1380,5112,597,6264,2,-2,?
2017-03-27 15:09:54.599000,521,7064,-38,584,-880,144,-695,1272,94,1056,437,784,-38,6312,527,304,-1343,5272,271,712,457,32,-73,4672,1374,5112,582,6264,2,-2,?
2017-03-27 15:09:54.608000,521,7064,-34,584,-882,144,-696,1272,90,1056,437,784,-43,6312,517,304,-1341,5272,259,712,460,32,-73,4672,1371,5112,580,6264,2,-2,?
2017-03-27 15:09:54.614000,526,7064,-34,584,-877,144,-704,1272,94,1056,444,784,-35,6312,529,304,-1332,5272,254,712,452,32,-87,4672,1374,5112,589,6264,2,-2,?
2017-03-27 15:09:54.622000,518,7064,-36,584,-886,144,-701,1272,96,1056,446,784,-34,6312,536,304,-1329,5272,245,712,437,32,-90,4672,1364,5112,580,6264,2,-2,?
2017-03-27 15:09:54.630000,518,7064,-37,584,-883,144,-682,1272,96,1056,445,784,-30,6312,525,304,-1326,5272,245,712,438,32,-75,4672,1365,5112,574,6264,2,-2,?
2017-03-27 15:09:54.638000,532,7064,-38,584,-872,144,-678,1272,106,1056,459,784,-10,6312,527,304,-1320,5272,250,712,445,32,-72,4672,1380,5112,587,6264,2,-2,?
2017-03-27 15:09:54.646000,531,7064,-34,584,-884,144,-692,1272,110,1056,469,784,-9,6312,535,304,-1315,5272,243,712,438,32,-88,4672,1381,5112,585,6264,2,-2,?
2017-03-27 15:09:54.653000,524,7064,-32,584,-896,144,-693,1272,100,1056,452,784,-24,6312,529,304,-1316,5272,239,712,437,32,-91,4672,1371,5112,567,6264,2,-2,?
2017-03-27 15:09:54.662000,519,7064,-36,584,-885,144,-689,1272,92,1056,448,784,-25,6312,529,304,-1320,5272,248,712,439,32,-86,4672,1369,5112,565,6264,2,-2,?
2017-03-27 15:09:54.669000,530,7064,-36,584,-875,144,-701,1272,95,1056,467,784,-34,6312,529,304,-1319,5272,255,712,429,32,-102,4672,1363,5112,573,6264,2,-2,?
2017-03-27 15:09:54.678000,562,7064,-34,584,-886,144,-706,1272,100,1056,467,784,-59,6312,524,304,-1320,5272,244,712,422,32,-118,4672,1356,5112,566,6264,2,-2,?
2017-03-27 15:09:54.685000,571,7064,-35,584,-890,144,-694,1272,94,1056,440,784,-67,6312,529,304,-1330,5272,231,712,422,32,-114,4672,1356,5112,562,6264,2,-2,?
2017-03-27 15:09:54.693000,539,7064,-34,584,-878,144,-692,1272,84,1056,433,784,-64,6312,534,304,-1333,5272,223,712,429,32,-105,4672,1354,5112,569,6264,2,-2,?
2017-03-27 15:09:54.700000,514,7056,-35,584,-899,144,-701,1272,87,1056,458,784,-65,6312,530,304,-1315,5272,212,712,431,32,-105,4672,1359,5112,562,6264,2,-2,?
2017-03-27 15:09:54.707000,520,7056,-36,632,-930,144,-707,1272,97,1056,467,784,-60,6312,531,304,-1304,5272,198,712,427,32,-107,4672,1368,5112,555,6264,2,-2,?
2017-03-27 15:09:54.715000,524,7056,-33,632,-907,144,-699,1272,96,1056,450,784,-61,6312,531,304,-1315,5272,189,712,431,32,-112,4672,1360,5112,571,6256,2,-2,?
2017-03-27 15:09:54.723000,520,7056,-29,632,-856,136,-688,1272,87,1056,441,784,-70,6312,514,304,-1333,5272,166,712,440,32,-121,4672,1356,5112,588,6256,2,-2,?
2017-03-27 15:09:54.732000,527,7056,-32,632,-820,136,-684,1264,83,1056,446,784,-66,6312,511,304,-1337,5272,135,712,451,32,-125,4672,1366,5112,597,6256,2,-2,?
2017-03-27 15:09:54.738000,544,7056,-35,632,-785,136,-683,1264,84,1056,440,784,-63,6312,525,304,-1324,5272,118,712,474,32,-137,4672,1363,5112,627,6256,2,-2,?
2017-03-27 15:09:54.747000,553,7056,-30,632,-746,136,-678,1264,81,1056,432,768,-82,6312,529,304,-1321,5272,97,712,497,32,-152,4672,1361,5112,666,6256,2,-2,?
2017-03-27 15:09:54.755000,555,7056,-29,632,-703,136,-669,1264,79,1056,442,768,-93,6320,519,304,-1339,5272,60,712,503,32,-160,4672,1373,5112,682,6256,2,-2,?
2017-03-27 15:09:54.764000,567,7056,-30,632,-693,136,-675,1264,76,1056,435,768,-95,6320,511,312,-1357,5272,23,712,505,32,-173,4672,1364,5112,693,6256,2,-2,?
2017-03-27 15:09:54.771000,577,7056,-27,632,-682,136,-684,1264,63,1056,397,768,-113,6320,515,312,-1368,5256,-10,712,511,32,-191,4672,1346,5112,708,6256,2,-2,?
2017-03-27 15:09:54.779000,584,7056,-23,632,-456,136,-669,1264,60,1056,380,768,-117,6320,526,312,-1368,5256,-32,704,516,32,-198,4672,1363,5112,723,6256,1,-2,?
2017-03-27 15:09:54.788000,605,7056,-27,632,-80,136,-646,1264,71,1056,406,768,-92,6320,533,312,-1350,5256,-33,704,538,48,-187,4672,1387,5112,742,6256,2,-2,?
2017-03-27 15:09:54.794000,610,7056,-33,632,-36,136,-644,1264,74,1056,419,768,-80,6320,531,312,-1328,5256,-42,704,549,48,-180,4696,1376,5112,755,6256,1,-2,?
2017-03-27 15:09:54.802000,585,7056,-28,632,-156,136,-650,1264,68,1056,393,768,-88,6320,522,312,-1333,5256,-68,704,520,48,-201,4696,1352,5096,749,6256,2,-2,?
2017-03-27 15:09:54.813000,569,7056,-25,632,250,136,-645,1264,69,1056,390,768,-97,6320,510,312,-1358,5256,-99,720,488,48,-235,4696,1342,5096,740,6256,2,-2,?
2017-03-27 15:09:54.818000,571,7056,-30,632,609,136,-646,1264,70,1056,412,768,-114,6320,504,312,-1370,5256,-136,720,487,32,-244,4696,1338,5096,739,6256,2,-2,?
2017-03-27 15:09:54.825000,574,7056,-26,632,12,136,-644,1264,67,1056,411,768,-132,6320,513,312,-1362,5256,-173,720,492,32,-235,4696,1341,5096,740,6256,2,-2,?
2017-03-27 15:09:54.834000,576,7056,-20,632,-754,136,-629,1264,70,1056,395,768,-132,6320,521,312,-1354,5256,-200,720,486,32,-241,4696,1344,5096,748,6256,2,-2,?
2017-03-27 15:09:54.842000,573,7056,-24,632,-797,136,-629,1264,73,1056,389,768,-129,6320,519,312,-1361,5256,-232,720,470,32,-258,4696,1333,5096,747,6256,2,-2,?
2017-03-27 15:09:54.850000,566,7056,-28,632,-656,136,-640,1264,68,1056,388,768,-132,6320,512,312,-1369,5256,-275,720,453,32,-271,4696,1316,5096,732,6256,2,-2,?
2017-03-27 15:09:54.858000,566,7056,-27,632,-744,136,-645,1264,54,1056,382,768,-141,6320,508,312,-1360,5256,-308,720,440,32,-279,4696,1315,5096,720,6256,2,-2,?
2017-03-27 15:09:54.865000,567,7056,-27,632,-754,136,-640,1264,40,1056,366,768,-147,6320,507,312,-1353,5256,-337,720,426,32,-295,4696,1317,5096,718,6256,2,-2,?
2017-03-27 15:09:54.872000,562,7056,-29,632,-682,136,-631,1264,43,1056,357,768,-146,6320,509,312,-1364,5256,-360,720,418,32,-307,4696,1316,5096,718,6256,2,-2,?
2017-03-27 15:09:54.880000,560,7056,-28,632,-674,136,-634,1264,52,1056,369,768,-152,6320,511,312,-1374,5256,-372,720,419,32,-303,4696,1331,5096,716,6256,2,-2,?
2017-03-27 15:09:54.889000,561,7056,-28,632,-687,136,-642,1264,47,1056,373,768,-170,6320,508,312,-1376,5256,-393,720,409,32,-309,4696,1342,5096,711,6256,2,-2,?
2017-03-27 15:09:54.896000,561,7056,-30,632,-700,136,-637,1264,42,1056,360,768,-175,6320,511,312,-1361,5256,-413,720,395,32,-321,4696,1338,5096,703,6256,2,-2,?
2017-03-27 15:09:54.904000,558,7056,-29,632,-700,136,-624,1264,52,1056,363,768,-162,6320,529,312,-1336,5256,-412,720,388,32,-319,4696,1340,5096,690,6256,2,-1,?
2017-03-27 15:09:54.910000,552,7056,-29,632,-700,136,-617,1264,64,1056,379,768,-147,6320,536,312,-1330,5256,-397,720,385,32,-312,4696,1352,5096,681,6256,2,-2,?
2017-03-27 15:09:54.919000,554,7056,-26,632,-714,136,-615,1264,65,1056,389,768,-130,6320,524,312,-1337,5256,-387,720,376,32,-319,4696,1354,5096,682,6256,2,-2,?
2017-03-27 15:09:54.926000,552,7056,-26,632,-725,136,-615,1264,69,1056,395,768,-121,6320,509,312,-1333,5256,-390,720,359,32,-321,4696,1342,5096,669,6256,2,-2,?
2017-03-27 15:09:54.938000,535,7056,-29,632,-729,136,-621,1264,75,1056,401,768,-135,6320,506,312,-1332,5256,-388,720,337,32,-314,4696,1334,5096,639,6256,2,-2,?
2017-03-27 15:09:54.945000,521,7056,-27,632,-733,136,-624,1264,70,1056,400,768,-154,6320,509,312,-1340,5256,-377,720,320,32,-319,4696,1330,5096,628,6256,2,-2,?
2017-03-27 15:09:54.950000,528,7056,-27,632,-730,136,-614,1264,68,1056,392,768,-152,6320,517,312,-1328,5256,-373,720,317,32,-328,4696,1330,5096,635,6256,2,-2,?
2017-03-27 15:09:54.957000,539,7056,-30,632,-725,136,-603,1264,80,1056,390,768,-144,6320,525,312,-1306,5256,-390,720,323,32,-333,4696,1334,5096,632,6256,2,-2,?
2017-03-27 15:09:54.966000,526,7056,-28,632,-731,136,-602,1264,90,1056,397,768,-148,6320,531,312,-1305,5256,-413,720,318,32,-335,4696,1338,5096,622,6256,2,-2,?
2017-03-27 15:09:54.976000,522,7056,-27,632,-748,136,-598,1264,87,1056,407,768,-155,6320,531,312,-1313,5256,-422,720,305,32,-326,4696,1338,5096,617,6256,2,-2,?
2017-03-27 15:09:54.982000,543,7056,-30,632,-757,136,-599,1264,86,1056,406,768,-153,6320,520,312,-1317,5256,-424,720,309,32,-308,4696,1336,5096,619,6256,2,-2,?
2017-03-27 15:09:54.990000,548,7056,-30,632,-726,136,-613,1264,80,1056,394,768,-149,6320,515,312,-1309,5256,-426,720,319,32,-303,4696,1336,5096,622,6256,2,-2,?
2017-03-27 15:09:54.997000,529,7056,-28,632,-678,136,-618,1264,68,1056,379,768,-150,6320,516,312,-1294,5256,-430,720,307,32,-316,4696,1328,5096,617,6256,2,-2,?
2017-03-27 15:09:55.005000,521,7056,-29,632,-591,136,-606,1264,75,1056,387,768,-134,6320,520,312,-1292,5256,-429,720,293,32,-323,4696,1317,5096,606,6256,2,-2,?
2017-03-27 15:09:55.013000,521,7056,-33,632,-428,136,-605,1264,92,1056,414,768,-117,6320,522,312,-1306,5256,-427,720,286,32,-325,4696,1312,5096,596,6256,2,-2,?
2017-03-27 15:09:55.021000,518,7056,-33,632,-284,136,-607,1264,89,1056,413,768,-137,6320,519,312,-1308,5256,-427,720,284,32,-333,4696,1318,5096,592,6256,2,-2,?
2017-03-27 15:09:55.030000,527,7056,-31,632,-252,136,-599,1264,73,1056,388,768,-150,6320,520,312,-1285,5256,-413,720,293,32,-326,4696,1332,5096,602,6256,2,-2,?
2017-03-27 15:09:55.036000,542,7056,-28,632,-258,136,-596,1264,76,1056,386,768,-127,6320,526,312,-1267,5256,-394,720,312,32,-298,4696,1345,5096,617,6256,2,-2,?
2017-03-27 15:09:55.043000,548,7056,-27,632,-237,136,-604,1264,84,1056,410,768,-109,6320,533,312,-1266,5256,-389,720,318,32,-286,4696,1354,5096,617,6256,2,-2,?
2017-03-27 15:09:55.052000,540,7056,-29,632,-233,136,-614,1264,79,1056,419,768,-112,6320,534,312,-1263,5256,-391,720,302,32,-303,4696,1347,5096,604,6256,2,-2,?
2017-03-27 15:09:55.059000,515,7056,-28,632,-251,136,-624,1264,79,1056,414,768,-124,6320,523,312,-1269,5256,-397,720,286,32,-313,4696,1329,5096,583,6256,2,-2,?
2017-03-27 15:09:55.069000,491,7056,-27,632,-250,136,-622,1264,80,1056,414,768,-137,6320,510,312,-1286,5256,-401,720,276,32,-309,4696,1321,5096,567,6256,2,-2,?
2017-03-27 15:09:55.075000,498,7056,-29,632,-226,136,-611,1264,76,1056,414,768,-138,6320,517,312,-1285,5256,-378,720,281,32,-317,4696,1326,5096,573,6256,2,-2,?
2017-03-27 15:09:55.084000,520,7056,-27,632,-199,136,-602,1264,81,1056,412,768,-126,6320,522,312,-1266,5256,-350,720,292,32,-318,4696,1337,5096,592,6256,2,-2,?
2017-03-27 15:09:55.092000,528,7056,-22,632,-190,136,-597,1264,89,1056,414,768,-119,6320,515,312,-1248,5256,-358,720,293,32,-305,4696,1348,5096,598,6256,2,-2,?
2017-03-27 15:09:55.099000,524,7056,-27,632,-189,136,-599,1264,86,1056,416,768,-119,6320,525,312,-1234,5256,-382,720,293,32,-299,4696,1355,5096,593,6256,2,-2,?
2017-03-27 15:09:55.106000,521,7056,-31,632,-184,136,-601,1264,87,1056,416,768,-124,6320,529,312,-1236,5256,-388,720,295,32,-305,4696,1357,5096,589,6256,2,-2,?
2017-03-27 15:09:55.114000,514,7056,-30,632,-194,136,-604,1264,91,1056,414,768,-123,6320,511,312,-1248,5256,-384,720,299,32,-302,4696,1361,5096,586,6256,2,-2,?
2017-03-27 15:09:55.122000,507,7056,-28,632,-228,136,-602,1264,91,1056,417,768,-114,6320,505,312,-1245,5256,-384,720,299,32,-291,4696,1365,5096,581,6256,2,-2,?
2017-03-27 15:09:55.128000,511,7056,-29,632,-206,136,-589,1264,100,1056,428,768,-105,6320,521,312,-1235,5256,-386,720,301,32,-289,4696,1365,5096,579,6256,2,-2,?
2017-03-27 15:09:55.137000,510,7056,-31,632,-219,136,-591,1264,104,1056,428,768,-104,6320,528,312,-1234,5256,-389,720,299,32,-293,4696,1365,5096,579,6256,2,-2,?
2017-03-27 15:09:55.145000,501,7056,-30,632,-478,136,-610,1264,90,1056,411,768,-115,6320,524,312,-1236,5256,-393,720,289,32,-294,4696,1361,5096,573,6256,2,-2,?
2017-03-27 15:09:55.152000,501,7056,-30,632,-776,136,-614,1264,81,1056,405,768,-124,6320,526,312,-1240,5256,-396,720,287,32,-298,4696,1357,5096,562,6256,2,-2,?
2017-03-27 15:09:55.161000,508,7056,-31,632,-818,136,-605,1264,80,1056,412,768,-132,6320,528,312,-1245,5256,-394,720,289,32,-299,4696,1356,5096,561,6256,2,-2,?
2017-03-27 15:09:55.169000,509,7056,-32,632,-755,136,-610,1264,82,1056,407,768,-151,6320,519,312,-1249,5256,-396,720,292,32,-293,4696,1357,5096,568,6256,2,-2,?
2017-03-27 15:09:55.177000,511,7056,-33,632,-775,136,-612,1264,92,1056,411,768,-156,6320,520,312,-1243,5256,-397,720,297,32,-291,4696,1354,5096,570,6256,2,-2,?
2017-03-27 15:09:55.185000,514,7056,-32,632,-779,136,-604,1264,100,1056,436,768,-133,6320,536,312,-1228,5256,-378,720,303,32,-293,4696,1350,5096,567,6256,2,-2,?
2017-03-27 15:09:55.192000,514,7056,-34,632,-746,136,-600,1264,103,1056,450,768,-121,6320,537,312,-1217,5256,-362,720,307,32,-283,4696,1350,5096,570,6256,2,-2,?
2017-03-27 15:09:55.200000,515,7056,-29,632,-743,136,-597,1264,110,1056,446,768,-133,6320,529,312,-1218,5256,-366,720,308,32,-283,4696,1353,5096,570,6256,2,-2,?
2017-03-27 15:09:55.208000,519,7056,-26,608,-741,136,-593,1264,117,1056,448,768,-129,6320,533,312,-1217,5256,-348,720,319,32,-299,4696,1359,5096,569,6256,2,-2,?
2017-03-27 15:09:55.215000,530,7056,-30,608,-739,136,-583,1264,119,1056,460,768,-115,6320,537,312,-1205,5256,-310,720,334,32,-288,4696,1373,5096,577,6240,2,-2,?
2017-03-27 15:09:55.224000,539,7056,-30,608,-738,128,-576,1264,122,1056,468,768,-116,6320,537,312,-1194,5256,-308,720,342,32,-260,4696,1384,5096,585,6240,2,-2,?
2017-03-27 15:09:55.232000,532,7056,-29,608,-738,128,-585,1256,119,1056,461,768,-125,6320,533,312,-1202,5256,-338,720,342,32,-261,4696,1374,5096,581,6240,2,-2,?
2017-03-27 15:09:55.243000,526,7056,-29,608,-739,128,-590,1256,113,1072,446,768,-126,6320,532,312,-1209,5256,-342,720,342,32,-276,4696,1361,5096,585,6240,2,-2,?
2017-03-27 15:09:55.247000,537,7056,-31,608,-727,128,-579,1256,109,1072,441,776,-123,6320,538,312,-1191,5256,-321,720,352,32,-274,4696,1367,5096,606,6240,2,-1,?
2017-03-27 15:09:55.257000,550,7056,-29,608,-702,128,-582,1256,105,1072,443,776,-127,6456,535,312,-1184,5256,-305,720,373,32,-265,4696,1378,5096,630,6240,2,-1,?
2017-03-27 15:09:55.262000,560,7056,-25,608,-683,128,-591,1256,107,1072,441,776,-129,6456,528,296,-1195,5256,-294,720,417,32,-256,4696,1390,5096,659,6240,2,-1,?
2017-03-27 15:09:55.272000,572,7056,-26,608,-675,128,-590,1256,106,1072,438,776,-133,6456,528,296,-1198,5264,-274,720,450,32,-247,4696,1392,5096,686,6240,2,-1,?
2017-03-27 15:09:55.279000,577,7056,-27,608,-662,128,-595,1256,97,1072,438,776,-146,6456,525,296,-1199,5264,-249,720,455,32,-244,4696,1386,5096,701,6240,2,-1,?
2017-03-27 15:09:55.287000,585,7056,-29,608,-644,128,-605,1256,99,1072,440,776,-161,6456,519,296,-1200,5264,-227,720,472,32,-239,4696,1393,5096,721,6240,2,-1,?
2017-03-27 15:09:55.296000,603,7056,-28,608,-621,128,-600,1256,102,1072,441,776,-146,6456,531,296,-1181,5264,-187,720,518,32,-222,4680,1408,5096,756,6240,2,-1,?
2017-03-27 15:09:55.303000,614,7056,-27,608,-604,128,-591,1256,93,1072,442,776,-125,6456,538,296,-1167,5264,-146,720,551,32,-203,4680,1406,5104,782,6240,2,-1,?
2017-03-27 15:09:55.309000,606,7056,-28,608,-606,128,-593,1256,94,1072,440,776,-138,6456,525,296,-1179,5264,-140,704,551,32,-203,4680,1390,5104,782,6240,2,-1,?
2017-03-27 15:09:55.318000,599,7056,-29,608,-628,128,-592,1256,96,1072,430,776,-159,6456,522,296,-1182,5264,-129,704,551,48,-203,4680,1393,5104,779,6240,2,-1,?
2017-03-27 15:09:55.326000,606,7056,-28,608,-642,128,-595,1256,85,1072,418,776,-156,6456,532,296,-1166,5264,-73,704,568,48,-184,4688,1412,5104,789,6240,2,-1,?
2017-03-27 15:09:55.333000,613,7056,-30,608,-648,128,-615,1256,80,1072,412,776,-148,6456,532,296,-1152,5264,-34,704,585,48,-173,4688,1413,5104,797,6240,2,-1,?
2017-03-27 15:09:55.341000,609,7056,-31,608,-671,128,-624,1256,83,1072,411,776,-154,6456,530,296,-1154,5264,-41,704,584,48,-185,4688,1398,5104,783,6240,2,-1,?
2017-03-27 15:09:55.349000,600,7056,-31,608,-701,128,-612,1256,81,1072,411,776,-161,6456,533,296,-1153,5264,-22,704,573,48,-190,4688,1391,5104,766,6240,2,-1,?
2017-03-27 15:09:55.359000,594,7056,-28,608,-724,128,-604,1256,86,1072,416,776,-155,6456,534,296,-1142,5264,-4,704,569,48,-183,4688,1397,5104,761,6240,2,-2,?
2017-03-27 15:09:55.365000,585,7056,-28,608,-744,128,-614,1256,94,1072,419,776,-133,6456,535,296,-1153,5264,-47,704,565,48,-192,4688,1393,5104,752,6240,2,-1,?
2017-03-27 15:09:55.373000,571,7056,-32,608,-776,128,-615,1256,88,1072,416,776,-119,6456,536,296,-1152,5264,-82,704,546,48,-199,4688,1376,5104,732,6240,2,-2,?
2017-03-27 15:09:55.380000,568,7056,-32,608,-825,128,-603,1256,81,1072,417,776,-128,6456,538,296,-1122,5264,-69,704,525,48,-175,4688,1374,5104,720,6240,2,-1,?
2017-03-27 15:09:55.389000,577,7056,-31,608,-855,128,-598,1256,87,1072,430,776,-123,6456,539,296,-1109,5264,-63,704,532,48,-156,4688,1391,5104,720,6240,2,-1,?
2017-03-27 15:09:55.395000,580,7056,-34,608,-801,128,-608,1256,92,1072,440,776,-98,6456,539,296,-1117,5264,-78,704,543,48,-172,4688,1395,5104,714,6240,2,-1,?
2017-03-27 15:09:55.403000,575,7056,-33,608,-855,128,-613,1256,90,1072,441,776,-95,6456,537,296,-1118,5264,-86,704,523,48,-182,4688,1385,5104,698,6240,2,-1,?
2017-03-27 15:09:55.411000,565,7056,-33,608,-898,128,-608,1256,95,1072,445,776,-115,6456,535,296,-1114,5264,-100,704,492,48,-174,4688,1378,5104,679,6240,2,-1,?
2017-03-27 15:09:55.419000,552,7056,-33,608,-342,128,-609,1256,105,1072,441,776,-123,6456,536,296,-1114,5264,-121,704,471,48,-182,4688,1367,5104,652,6240,2,-1,?
2017-03-27 15:09:55.428000,545,7056,-28,608,486,128,-596,1256,105,1072,417,776,-124,6456,533,296,-1121,5264,-143,704,450,48,-199,4688,1353,5104,616,6240,2,-1,?
2017-03-27 15:09:55.434000,542,7056,-32,608,716,128,-577,1256,100,1072,406,776,-122,6456,529,296,-1132,5264,-168,704,433,48,-205,4688,1349,5104,593,6240,2,-1,?
2017-03-27 15:09:55.443000,538,7056,-38,608,499,128,-579,1256,105,1072,430,776,-112,6456,532,296,-1123,5264,-184,704,425,48,-209,4688,1349,5104,579,6240,2,-2,?
2017-03-27 15:09:55.451000,537,7056,-32,608,508,128,-591,1256,105,1072,449,776,-109,6456,535,296,-1114,5264,-194,704,409,48,-216,4688,1345,5104,563,6240,2,-2,?
2017-03-27 15:09:55.459000,537,7056,-29,608,499,128,-601,1256,94,1072,440,776,-129,6456,529,296,-1125,5264,-204,704,387,48,-224,4688,1343,5104,552,6240,2,-2,?
2017-03-27 15:09:55.467000,535,7056,-31,608,-89,128,-616,1256,81,1072,415,776,-161,6456,528,296,-1126,5264,-214,704,380,48,-226,4688,1342,5104,547,6240,2,-2,?
2017-03-27 15:09:55.476000,540,7056,-29,608,-836,128,-623,1256,71,1072,394,776,-186,6456,530,296,-1127,5264,-215,704,381,48,-223,4688,1338,5104,548,6240,2,-3,?
2017-03-27 15:09:55.482000,535,7056,-30,608,-1079,128,-619,1256,63,1072,391,776,-192,6456,528,296,-1130,5264,-198,704,359,48,-234,4688,1337,5104,546,6240,2,-2,?
2017-03-27 15:09:55.490000,513,7056,-35,608,-976,128,-624,1256,63,1072,404,776,-184,6456,533,296,-1125,5264,-198,704,324,48,-253,4688,1328,5104,529,6240,2,-2,?
2017-03-27 15:09:55.498000,511,7056,-34,608,-996,128,-623,1256,76,1072,428,776,-163,6456,533,296,-1130,5264,-234,704,318,48,-258,4688,1318,5104,519,6240,2,-2,?
2017-03-27 15:09:55.506000,528,7056,-34,608,-1042,128,-610,1256,91,1072,444,776,-136,6456,523,296,-1140,5264,-270,704,328,48,-257,4688,1322,5104,528,6240,2,-2,?
2017-03-27 15:09:55.513000,528,7056,-36,608,-997,128,-613,1256,83,1072,426,776,-112,6456,531,296,-1129,5264,-273,704,322,48,-256,4688,1331,5104,525,6240,2,-2,?
2017-03-27 15:09:55.521000,510,7056,-35,608,-1010,128,-618,1256,63,1072,406,776,-118,6456,530,296,-1119,5264,-273,704,310,48,-248,4688,1331,5104,504,6240,2,-2,?
2017-03-27 15:09:55.529000,507,7056,-31,608,-1021,128,-615,1256,77,1072,430,776,-148,6456,511,296,-1119,5264,-288,704,309,48,-235,4688,1333,5104,501,6240,2,-2,?
2017-03-27 15:09:55.536000,529,7056,-31,608,-1004,128,-611,1256,101,1072,448,776,-148,6456,522,296,-1088,5264,-274,704,331,48,-220,4688,1352,5104,520,6240,2,-2,?
2017-03-27 15:09:55.546000,544,7056,-34,608,-1008,128,-607,1256,78,1072,421,776,-132,6456,541,296,-1050,5264,-246,704,341,48,-221,4688,1359,5104,525,6240,2,-1,?
2017-03-27 15:09:55.551000,527,7056,-39,608,-1029,128,-612,1256,60,1072,429,776,-154,6456,531,296,-1065,5264,-272,704,300,48,-255,4688,1329,5104,500,6240,2,-1,?
2017-03-27 15:09:55.560000,518,7056,-39,608,-1038,128,-615,1256,88,1072,454,776,-156,6456,531,296,-1090,5264,-298,704,274,48,-264,4688,1317,5104,490,6240,2,-1,?
2017-03-27 15:09:55.568000,555,7056,-33,608,-1017,128,-587,1256,112,1072,419,776,-120,6456,548,296,-1069,5264,-256,704,315,48,-229,4688,1349,5104,517,6240,2,-1,?
2017-03-27 15:09:55.575000,593,7056,-30,608,-988,128,-559,1256,115,1072,398,776,-125,6456,539,296,-1046,5264,-217,704,360,48,-207,4688,1378,5104,550,6240,2,1,?
2017-03-27 15:09:55.583000,597,7056,-32,608,-977,128,-578,1256,114,1072,430,776,-138,6456,531,296,-1045,5264,-222,704,367,48,-195,4688,1387,5104,566,6240,1,2,?
2017-03-27 15:09:55.591000,588,7056,-35,608,-989,128,-602,1256,104,1072,435,776,-106,6456,535,296,-1054,5264,-226,704,358,48,-176,4688,1375,5104,558,6240,1,3,?
2017-03-27 15:09:55.599000,575,7056,-33,608,-1009,128,-602,1256,86,1072,413,776,-106,6456,521,296,-1085,5264,-226,704,340,48,-175,4688,1353,5104,536,6240,1,3,?
2017-03-27 15:09:55.607000,570,7056,-34,608,-1009,128,-606,1256,78,1072,413,776,-148,6456,505,296,-1107,5264,-226,704,338,48,-166,4688,1375,5104,536,6240,1,2,?
2017-03-27 15:09:55.615000,582,7056,-34,608,-995,128,-617,1256,78,1072,414,776,-150,6456,505,296,-1092,5264,-190,704,373,48,-124,4688,1425,5104,565,6240,1,1,?
2017-03-27 15:09:55.623000,588,7056,-29,608,-992,128,-617,1256,71,1072,412,776,-128,6456,494,296,-1076,5264,-168,704,404,48,-98,4688,1426,5104,585,6240,1,0,?
2017-03-27 15:09:55.631000,585,7056,-30,608,-973,128,-599,1256,65,1072,416,776,-118,6456,480,296,-1075,5264,-210,704,413,48,-97,4688,1403,5104,594,6240,1,-1,?
2017-03-27 15:09:55.638000,585,7056,-30,608,-935,128,-585,1256,71,1072,416,776,-100,6456,495,296,-1050,5264,-202,704,434,48,-74,4688,1397,5104,622,6240,1,-2,?
2017-03-27 15:09:55.646000,578,7056,-31,608,-937,128,-595,1256,78,1072,410,776,-83,6456,511,296,-1024,5264,-123,704,468,48,-51,4688,1383,5104,651,6240,1,-2,?
2017-03-27 15:09:55.653000,579,7056,-34,608,-948,128,-606,1256,79,1072,410,776,-81,6456,494,296,-1038,5264,-114,704,498,48,-72,4688,1384,5104,656,6240,1,-2,?
2017-03-27 15:09:55.661000,589,7056,-29,608,-924,128,-594,1256,82,1072,420,776,-90,6456,485,296,-1050,5264,-128,704,512,48,-94,4688,1394,5104,661,6240,1,-2,?
2017-03-27 15:09:55.669000,564,7056,-28,608,-916,128,-584,1256,82,1072,424,776,-108,6456,495,296,-1022,5264,-42,704,513,48,-70,4688,1367,5104,668,6240,1,-2,?
2017-03-27 15:09:55.679000,528,7056,-32,608,-932,128,-591,1256,70,1072,410,776,-131,6456,494,296,-993,5264,39,704,524,48,-48,4688,1344,5104,661,6240,1,-2,?
2017-03-27 15:09:55.685000,537,7056,-27,608,-924,128,-597,1256,69,1072,408,776,-137,6456,495,296,-986,5264,50,704,554,48,-51,4688,1366,5104,670,6240,1,-2,?
2017-03-27 15:09:55.692000,556,7056,-27,608,-921,128,-598,1256,85,1072,420,776,-127,6456,508,296,-982,5264,71,704,565,48,-52,4688,1384,5104,691,6240,2,-2,?
2017-03-27 15:09:55.701000,548,7056,-34,608,-939,128,-606,1256,86,1072,413,776,-113,6456,508,296,-976,5264,101,704,556,48,-59,4688,1380,5104,695,6240,2,-2,?
2017-03-27 15:09:55.708000,542,7048,-31,608,-941,128,-606,1256,76,1072,401,776,-94,6456,507,296,-958,5264,122,704,564,48,-63,4688,1387,5104,700,6240,2,-2,?
2017-03-27 15:09:55.716000,546,7048,-28,624,-942,128,-598,1256,85,1072,418,776,-79,6456,525,296,-929,5264,144,704,572,48,-60,4688,1397,5104,709,6240,2,-2,?
2017-03-27 15:09:55.726000,536,7048,-37,624,-967,128,-606,1256,102,1072,438,776,-83,6456,524,296,-928,5264,142,704,546,48,-83,4688,1388,5104,693,6256,2,-2,?
2017-03-27 15:09:55.733000,521,7048,-37,624,-992,144,-618,1256,99,1072,438,776,-108,6456,512,296,-946,5264,141,704,515,48,-100,4688,1372,5104,665,6256,2,-2,?
2017-03-27 15:09:55.740000,524,7048,-29,624,-996,144,-605,1256,91,1072,433,776,-132,6456,525,296,-944,5264,175,704,518,48,-76,4688,1377,5104,662,6256,2,-2,?
2017-03-27 15:09:55.746000,533,7048,-30,624,-993,144,-586,1256,104,1064,429,776,-123,6456,538,296,-923,5264,206,704,533,48,-59,4688,1393,5104,666,6256,2,-2,?
2017-03-27 15:09:55.754000,529,7048,-35,624,-1007,144,-592,1256,109,1064,412,768,-90,6456,534,296,-893,5264,230,704,516,48,-60,4688,1394,5104,654,6256,2,-2,?
2017-03-27 15:09:55.766000,516,7048,-35,624,-1036,144,-594,1256,94,1064,402,768,-63,6448,530,296,-873,5264,263,704,492,48,-47,4688,1394,5104,633,6256,2,-2,?
2017-03-27 15:09:55.772000,514,7048,-36,624,-1054,144,-589,1256,94,1064,424,768,-55,6448,532,256,-890,5264,269,704,491,48,-30,4688,1400,5104,615,6256,2,-2,?
2017-03-27 15:09:55.778000,509,7048,-36,624,-1078,144,-598,1256,113,1064,446,768,-59,6448,530,256,-914,5104,233,704,474,48,-40,4688,1392,5104,591,6256,2,-2,?
2017-03-27 15:09:55.786000,494,7048,-35,624,-1114,144,-613,1256,118,1064,455,768,-72,6448,530,256,-905,5104,201,728,444,48,-58,4688,1383,5104,567,6256,2,-2,?
2017-03-27 15:09:55.795000,496,7048,-35,624,-1129,144,-622,1256,104,1064,464,768,-85,6448,529,256,-901,5104,193,728,435,32,-62,4688,1388,5104,559,6256,2,-2,?
2017-03-27 15:09:55.801000,515,7048,-35,624,-1115,144,-622,1256,106,1064,473,768,-79,6448,531,256,-914,5104,186,728,439,32,-54,4680,1395,5104,561,6256,2,-1,?
2017-03-27 15:09:55.810000,519,7048,-37,624,-1095,144,-612,1256,126,1064,473,768,-51,6448,538,256,-899,5104,181,728,442,32,-41,4680,1399,5096,561,6256,2,-1,?
2017-03-27 15:09:55.817000,511,7048,-35,624,-1084,144,-602,1256,138,1064,469,768,-27,6448,541,256,-882,5104,176,712,440,32,-47,4680,1401,5096,557,6256,2,0,?
2017-03-27 15:09:55.826000,507,7048,-33,624,-1085,144,-607,1256,138,1064,469,768,-7,6448,537,256,-894,5104,161,712,430,40,-61,4680,1403,5096,549,6256,2,0,?
2017-03-27 15:09:55.834000,509,7048,-37,624,-1085,144,-610,1256,131,1064,464,768,0,6448,534,256,-910,5104,146,712,415,40,-60,4680,1401,5096,535,6256,2,0,?
2017-03-27 15:09:55.840000,511,7048,-34,624,-1081,144,-610,1256,119,1064,448,768,-16,6448,536,256,-917,5104,123,712,407,40,-68,4680,1390,5096,521,6256,2,1,?
2017-03-27 15:09:55.849000,506,7048,-31,624,-1087,144,-628,1256,108,1064,440,768,-34,6448,538,256,-920,5104,105,712,404,40,-88,4680,1381,5096,514,6256,2,1,?
2017-03-27 15:09:55.858000,487,7048,-37,624,-1108,144,-644,1256,116,1064,460,768,-49,6448,534,256,-927,5104,85,712,388,40,-97,4680,1374,5096,498,6256,2,1,?
2017-03-27 15:09:55.865000,466,7048,-42,624,-1130,144,-643,1256,128,1064,476,768,-65,6448,532,256,-947,5104,59,712,359,40,-101,4680,1355,5096,466,6256,2,1,?
2017-03-27 15:09:55.872000,450,7048,-39,624,-1146,144,-638,1256,118,1064,466,768,-64,6448,546,256,-942,5104,40,712,334,40,-122,4680,1339,5096,445,6256,2,1,?
2017-03-27 15:09:55.880000,441,7048,-37,624,-1151,144,-636,1256,108,1064,468,768,-32,6448,553,256,-917,5104,18,712,315,40,-147,4680,1330,5096,439,6256,2,1,?
2017-03-27 15:09:55.888000,450,7048,-39,624,-1138,144,-628,1256,118,1064,478,768,2,6448,554,256,-925,5104,14,712,310,40,-150,4680,1327,5096,439,6256,2,1,?
2017-03-27 15:09:55.896000,468,7048,-35,624,-1120,144,-635,1256,120,1064,459,768,3,6448,553,256,-929,5104,54,712,326,40,-133,4680,1339,5096,449,6256,2,1,?
2017-03-27 15:09:55.905000,470,7048,-35,624,-1122,144,-635,1256,110,1064,443,768,-23,6448,536,256,-909,5104,61,712,329,40,-130,4680,1342,5096,450,6256,1,1,?
2017-03-27 15:09:55.911000,450,7048,-43,624,-1135,144,-619,1256,121,1064,457,768,-51,6448,521,256,-927,5104,-7,712,302,40,-155,4680,1321,5096,430,6256,1,0,?
2017-03-27 15:09:55.920000,437,7048,-40,624,-1138,144,-625,1256,134,1064,461,768,-65,6448,528,256,-967,5104,-59,712,281,40,-164,4680,1314,5096,415,6256,1,0,?
2017-03-27 15:09:55.927000,447,7048,-34,624,-1127,144,-636,1256,114,1064,434,768,-72,6448,537,256,-970,5104,-51,712,291,40,-144,4680,1326,5096,416,6256,1,0,?
2017-03-27 15:09:55.935000,459,7048,-35,624,-1111,144,-613,1256,93,1064,422,768,-72,6448,534,256,-967,5104,-50,712,315,40,-128,4680,1336,5096,428,6256,1,1,?
2017-03-27 15:09:55.946000,466,7048,-34,624,-1081,144,-592,1256,113,1064,458,768,-62,6448,536,256,-976,5104,-69,712,338,40,-108,4680,1351,5096,450,6256,1,1,?
2017-03-27 15:09:55.952000,473,7048,-32,624,-1064,144,-608,1256,137,1064,488,768,-35,6448,542,256,-952,5104,-68,712,348,40,-74,4680,1362,5096,465,6256,1,1,?
2017-03-27 15:09:55.959000,475,7048,-31,624,-1072,144,-614,1256,124,1064,474,768,-13,6448,542,256,-902,5104,-68,712,350,40,-62,4680,1365,5096,461,6256,1,1,?
2017-03-27 15:09:55.967000,470,7048,-30,624,-1074,144,-601,1256,105,1064,463,768,-19,6448,533,256,-898,5104,-138,712,364,40,-61,4680,1381,5096,452,6256,1,0,?
2017-03-27 15:09:55.974000,469,7048,-32,624,-1070,144,-601,1256,113,1064,473,768,-28,6448,527,256,-887,5104,-166,712,360,40,-20,4680,1384,5096,456,6256,1,-1,?
2017-03-27 15:09:55.984000,482,7048,-31,624,-1067,144,-598,1256,123,1064,478,768,-31,6448,530,256,-812,5104,-145,712,355,40,-36,4680,1389,5096,476,6256,1,-2,?
2017-03-27 15:09:55.990000,492,7048,-29,624,-1065,144,-590,1256,117,1064,474,768,-32,6448,533,256,-754,5104,-215,712,390,40,-123,4680,1415,5096,483,6256,0,-2,?
2017-03-27 15:09:55.997000,475,7048,-32,624,-1074,144,-590,1256,112,1064,460,768,-36,6448,536,256,-743,5104,-219,712,386,40,-90,4680,1392,5096,461,6256,0,-3,?
2017-03-27 15:09:56.005000,457,7048,-34,624,-1079,144,-600,1256,110,1064,440,768,-50,6448,537,256,-772,5104,-110,712,337,40,-50,4680,1346,5096,446,6256,0,-3,?
2017-03-27 15:09:56.012000,468,7048,-31,624,-1077,144,-599,1256,104,1064,427,768,-61,6448,530,256,-833,5104,-105,712,351,40,-139,4680,1368,5096,459,6256,0,-3,?
2017-03-27 15:09:56.021000,471,7048,-29,624,-1078,144,-595,1256,97,1064,420,768,-61,6448,528,256,-857,5104,-126,712,384,40,-121,4680,1380,5096,456,6256,0,-3,?
2017-03-27 15:09:56.028000,456,7048,-32,624,-1077,144,-594,1256,97,1064,420,768,-62,6448,535,256,-817,5104,-12,712,346,40,1,4680,1340,5096,438,6256,0,-4,?
2017-03-27 15:09:56.038000,459,7048,-36,624,-1073,144,-604,1256,98,1064,428,768,-71,6448,535,256,-778,5104,51,712,325,40,-14,4680,1338,5096,443,6256,0,-4,?
2017-03-27 15:09:56.044000,468,7048,-37,624,-1081,144,-616,1256,97,1064,433,768,-69,6448,538,256,-770,5104,-24,712,347,40,-55,4680,1353,5096,453,6256,0,-4,?
2017-03-27 15:09:56.053000,456,7048,-33,624,-1086,144,-611,1256,96,1064,438,768,-65,6448,540,256,-782,5104,-79,712,337,40,-9,4680,1344,5096,444,6256,0,-4,?
2017-03-27 15:09:56.060000,454,7048,-33,624,-1068,144,-605,1256,97,1064,445,768,-71,6448,533,256,-784,5104,-76,712,322,40,15,4680,1362,5096,454,6256,0,-3,?
2017-03-27 15:09:56.070000,471,7048,-37,624,-1053,144,-609,1256,100,1064,439,768,-70,6448,536,256,-740,5104,-47,712,332,40,42,4680,1387,5096,483,6256,1,-3,?
2017-03-27 15:09:56.076000,468,7048,-36,624,-1061,144,-609,1256,89,1064,426,768,-63,6448,540,256,-729,5104,-42,712,332,40,81,4680,1377,5096,477,6256,1,-3,?
2017-03-27 15:09:56.083000,456,7048,-36,624,-1071,144,-605,1256,84,1064,416,768,-68,6448,535,256,-775,5104,-52,712,313,40,70,4680,1357,5096,449,6256,1,-3,?
2017-03-27 15:09:56.092000,461,7048,-40,624,-1067,144,-611,1256,90,1064,413,768,-77,6448,543,256,-787,5104,-33,712,297,40,65,4680,1354,5096,448,6256,1,-2,?
2017-03-27 15:09:56.100000,467,7048,-39,624,-1062,144,-618,1256,88,1064,412,768,-72,6448,548,256,-767,5104,-20,712,295,40,80,4680,1358,5096,461,6256,1,-2,?
2017-03-27 15:09:56.109000,471,7048,-34,624,-1068,144,-612,1256,79,1064,414,768,-65,6448,540,256,-766,5104,-28,712,298,40,81,4680,1362,5096,465,6256,1,-2,?
2017-03-27 15:09:56.118000,484,7048,-35,624,-1066,144,-603,1256,94,1064,431,768,-55,6448,540,256,-773,5104,-15,712,310,40,89,4680,1373,5096,470,6256,1,-2,?
2017-03-27 15:09:56.125000,496,7048,-35,624,-1055,144,-608,1256,113,1064,443,768,-40,6448,544,256,-772,5104,11,712,326,40,117,4680,1388,5096,484,6256,1,-2,?
2017-03-27 15:09:56.130000,497,7048,-31,624,-1056,144,-618,1256,108,1064,436,768,-40,6448,547,256,-786,5104,-8,712,314,40,124,4680,1386,5096,478,6256,1,-2,?
2017-03-27 15:09:56.140000,485,7048,-29,624,-1074,144,-622,1256,99,1064,428,768,-60,6448,546,256,-811,5104,-41,712,287,40,107,4680,1369,5096,456,6256,2,-2,?
2017-03-27 15:09:56.146000,469,7048,-37,624,-1093,144,-631,1256,101,1064,439,768,-72,6448,541,256,-828,5104,-15,712,290,40,92,4680,1361,5096,453,6256,2,-2,?
2017-03-27 15:09:56.156000,469,7048,-44,624,-1103,144,-643,1256,109,1064,458,768,-56,6448,543,256,-840,5104,49,712,316,40,88,4680,1367,5096,467,6256,2,-1,?
2017-03-27 15:09:56.164000,491,7048,-41,624,-1095,144,-637,1256,113,1064,458,768,-33,6448,551,256,-832,5104,122,712,352,40,97,4680,1385,5096,492,6256,2,-1,?
2017-03-27 15:09:56.172000,525,7048,-35,624,-1082,144,-631,1256,115,1064,451,768,-25,6448,540,256,-816,5104,205,712,410,40,131,4680,1411,5096,534,6256,2,-1,?
2017-03-27 15:09:56.179000,550,7048,-34,624,-1086,144,-640,1256,120,1064,467,768,-20,6448,529,256,-826,5104,249,712,456,40,150,4680,1433,5096,562,6256,2,-1,?
2017-03-27 15:09:56.188000,554,7048,-37,624,-1108,144,-646,1256,117,1064,482,768,-2,6448,552,256,-820,5104,264,712,474,40,142,4680,1450,5096,564,6256,2,-1,?
2017-03-27 15:09:56.193000,547,7048,-41,624,-1125,144,-648,1256,109,1064,474,768,3,6448,557,256,-799,5104,300,712,483,40,144,4680,1447,5096,565,6256,1,-1,?
2017-03-27 15:09:56.203000,539,7048,-40,624,-1143,144,-658,1256,111,1064,478,768,-10,6448,537,256,-814,5104,323,712,481,40,152,4680,1422,5096,557,6256,1,-1,?
2017-03-27 15:09:56.210000,524,7064,-42,624,-1176,144,-659,1256,130,1064,507,768,-5,6448,532,256,-826,5104,313,712,466,40,138,4680,1406,5096,538,6256,1,-1,?
2017-03-27 15:09:56.216000,518,7064,-43,592,-1198,144,-658,1256,128,1064,510,768,17,6448,538,256,-811,5104,313,712,467,40,115,4680,1415,5096,539,6256,1,-2,?
2017-03-27 15:09:56.224000,532,7064,-35,592,-1196,144,-667,1256,104,1064,485,768,20,6448,535,256,-812,5104,327,712,485,40,108,4680,1437,5096,549,6248,1,-2,?
2017-03-27 15:09:56.232000,543,7064,-35,592,-1184,152,-654,1256,106,1064,479,768,13,6448,531,256,-808,5104,330,712,494,40,117,4680,1442,5096,547,6248,1,-1,?
2017-03-27 15:09:56.240000,547,7064,-41,592,-1177,152,-632,1248,125,1064,484,768,22,6448,538,256,-789,5104,317,712,493,40,127,4680,1431,5096,549,6248,1,-1,?
2017-03-27 15:09:56.248000,552,7064,-37,592,-1179,152,-634,1248,117,1056,472,768,24,6448,539,256,-803,5104,298,712,489,40,121,4680,1434,5096,553,6248,0,-1,?
2017-03-27 15:09:56.255000,552,7064,-36,592,-1178,152,-639,1248,103,1056,459,792,-2,6448,529,256,-826,5104,281,712,490,40,104,4680,1437,5096,550,6248,0,-1,?
2017-03-27 15:09:56.264000,548,7064,-42,592,-1173,152,-637,1248,104,1056,468,792,-13,6432,527,256,-823,5104,259,712,492,40,97,4680,1430,5096,555,6248,0,-1,?
2017-03-27 15:09:56.272000,552,7064,-41,592,-1171,152,-644,1248,110,1056,476,792,2,6432,538,256,-822,5104,242,712,487,40,111,4680,1429,5096,561,6248,0,-1,?
2017-03-27 15:09:56.279000,549,7064,-34,592,-1169,152,-649,1248,110,1056,472,792,2,6432,530,256,-845,4960,228,712,477,40,115,4680,1435,5096,550,6248,0,-1,?
2017-03-27 15:09:56.287000,538,7064,-36,592,-1160,152,-640,1248,106,1056,477,792,5,6432,503,256,-877,4960,198,712,464,40,84,4680,1427,5096,536,6248,0,-1,?
2017-03-27 15:09:56.296000,544,7064,-41,592,-1150,152,-636,1248,102,1056,486,792,19,6432,497,256,-891,4960,196,712,461,48,81,4680,1423,5096,545,6248,0,-1,?
2017-03-27 15:09:56.304000,565,7064,-34,592,-1143,152,-638,1248,98,1056,463,792,13,6432,508,256,-902,4960,222,712,476,48,121,4728,1441,5096,567,6248,0,0,?
2017-03-27 15:09:56.311000,562,7064,-30,592,-1132,152,-628,1248,95,1056,443,792,-3,6432,508,256,-919,4960,187,712,489,48,149,4728,1447,5112,562,6248,0,0,?
2017-03-27 15:09:56.321000,544,7064,-36,592,-1134,152,-630,1248,92,1056,465,792,-1,6432,500,256,-906,4960,116,712,471,48,157,4728,1432,5112,539,6248,0,0,?
2017-03-27 15:09:56.328000,547,7064,-37,592,-1137,152,-644,1248,86,1056,463,792,6,6432,499,256,-879,4960,84,712,459,56,161,4728,1429,5112,534,6248,0,0,?
2017-03-27 15:09:56.337000,556,7064,-34,592,-1131,152,-641,1248,74,1056,422,792,-13,6432,495,256,-889,4960,60,712,467,56,141,4720,1441,5112,542,6248,0,0,?
2017-03-27 15:09:56.342000,550,7064,-36,592,-1130,152,-635,1248,80,1056,426,792,-34,6432,485,256,-898,4960,12,712,473,56,116,4720,1451,5112,541,6248,0,-1,?
2017-03-27 15:09:56.350000,539,7064,-35,592,-1130,152,-641,1248,97,1056,461,792,-31,6432,490,256,-875,4960,-21,712,465,56,121,4720,1445,5112,530,6248,0,-1,?
2017-03-27 15:09:56.359000,535,7064,-33,592,-1127,152,-642,1248,92,1056,460,792,-22,6432,495,256,-852,4960,20,712,437,56,133,4720,1410,5112,524,6248,0,-1,?
2017-03-27 15:09:56.366000,528,7064,-35,592,-1136,152,-636,1248,77,1056,443,792,-37,6432,481,256,-829,4960,93,712,409,56,92,4720,1383,5112,528,6248,0,-2,?
2017-03-27 15:09:56.373000,511,7064,-38,592,-1152,152,-644,1248,69,1056,447,792,-61,6432,466,256,-796,4960,86,712,408,56,48,4720,1387,5112,522,6248,0,-3,?
2017-03-27 15:09:56.383000,507,7064,-37,592,-1152,152,-650,1248,65,1056,443,792,-66,6432,475,256,-768,4960,49,712,411,56,63,4720,1380,5112,513,6248,0,-3,?
2017-03-27 15:09:56.389000,515,7064,-36,592,-1137,152,-632,1248,62,1056,416,792,-57,6432,489,256,-749,4960,86,712,405,56,60,4720,1367,5112,520,6248,0,-4,?
2017-03-27 15:09:56.398000,511,7064,-31,592,-1123,152,-609,1248,75,1056,407,792,-39,6432,482,256,-739,4960,126,712,417,56,24,4720,1383,5112,525,6248,0,-4,?
2017-03-27 15:09:56.405000,498,7064,-34,592,-1114,152,-591,1248,98,1056,431,792,-32,6432,469,256,-736,4960,119,712,423,56,63,4720,1388,5112,522,6248,0,-4,?
2017-03-27 15:09:56.412000,506,7064,-38,592,-1108,152,-585,1248,102,1056,456,792,-36,6432,479,256,-710,4960,146,712,413,56,127,4720,1378,5112,531,6248,0,-4,?
2017-03-27 15:09:56.420000,528,7064,-33,592,-1107,152,-594,1248,98,1056,467,792,-32,6432,494,256,-686,4960,178,712,417,56,125,4720,1390,5112,539,6248,0,-4,?
2017-03-27 15:09:56.428000,523,7064,-33,592,-1104,152,-595,1248,102,1056,467,792,-24,6432,484,256,-706,4960,171,712,423,56,133,4720,1398,5112,535,6248,1,-4,?
2017-03-27 15:09:56.435000,501,7064,-40,592,-1097,152,-590,1248,100,1056,462,792,-24,6432,468,256,-737,4960,174,712,414,56,154,4720,1390,5112,533,6248,1,-4,?
2017-03-27 15:09:56.442000,500,7064,-38,592,-1102,152,-600,1248,88,1056,464,792,-27,6432,473,256,-737,4960,199,712,399,56,130,4720,1391,5112,533,6248,1,-3,?
2017-03-27 15:09:56.451000,519,7064,-33,592,-1111,152,-611,1248,95,1056,473,792,-24,6432,489,256,-715,4960,215,712,392,56,135,4720,1399,5112,534,6248,1,-3,?
2017-03-27 15:09:56.459000,522,7064,-33,592,-1107,152,-604,1248,109,1056,470,792,-24,6432,499,256,-717,4960,195,712,389,56,166,4720,1404,5112,539,6248,2,-3,?
2017-03-27 15:09:56.467000,493,7064,-37,592,-1102,152,-600,1248,105,1056,465,792,-30,6432,501,256,-742,4960,151,712,375,56,152,4720,1403,5112,532,6248,2,-3,?
2017-03-27 15:09:56.474000,489,7064,-42,592,-1110,152,-607,1248,100,1056,466,792,-31,6432,513,256,-755,4960,134,712,363,56,139,4720,1399,5112,525,6248,2,-3,?
2017-03-27 15:09:56.482000,518,7064,-40,592,-1110,152,-601,1248,110,1056,468,792,-30,6432,532,256,-750,4960,135,712,369,56,160,4720,1402,5112,529,6248,2,-2,?
2017-03-27 15:09:56.491000,510,7064,-38,592,-1103,152,-587,1248,110,1056,474,792,-29,6432,538,256,-750,4960,116,712,363,56,165,4720,1406,5112,521,6248,2,-3,?
2017-03-27 15:09:56.499000,482,7064,-38,592,-1101,152,-599,1248,104,1056,473,792,-17,6432,524,256,-758,4960,90,712,346,56,163,4720,1411,5112,509,6248,2,-3,?
2017-03-27 15:09:56.507000,489,7064,-37,592,-1101,152,-622,1248,111,1056,471,792,-10,6432,509,256,-765,4960,75,712,344,56,159,4720,1412,5112,507,6248,2,-2,?
2017-03-27 15:09:56.514000,508,7064,-40,592,-1090,152,-617,1248,117,1056,480,792,-14,6432,515,256,-774,4960,67,712,346,56,136,4720,1405,5112,509,6248,2,-2,?
2017-03-27 15:09:56.520000,509,7064,-43,592,-1076,152,-609,1248,118,1056,499,792,-5,6432,521,256,-784,4960,64,712,356,56,125,4720,1413,5112,513,6248,2,-2,?
2017-03-27 15:09:56.529000,506,7064,-37,592,-1068,152,-622,1248,117,1056,506,792,7,6432,510,256,-779,4960,64,712,375,56,134,4720,1424,5112,520,6248,2,-2,?
2017-03-27 15:09:56.537000,509,7064,-31,592,-1059,152,-618,1248,112,1056,500,792,-1,6432,500,256,-758,4960,52,712,381,56,129,4720,1418,5112,518,6248,2,-2,?
2017-03-27 15:09:56.546000,517,7064,-37,592,-1043,152,-603,1248,114,1056,497,792,-6,6432,504,256,-760,4960,38,712,384,56,114,4720,1420,5112,511,6248,2,-2,?
2017-03-27 15:09:56.553000,531,7064,-41,592,-1025,152,-610,1248,125,1056,500,792,3,6432,506,256,-775,4960,44,712,405,56,114,4720,1440,5112,520,6248,2,-2,?
2017-03-27 15:09:56.561000,530,7064,-33,592,-1016,152,-618,1248,129,1056,505,792,3,6432,506,256,-765,4960,50,712,415,56,124,4720,1439,5112,524,6248,2,-2,?
2017-03-27 15:09:56.571000,513,7064,-31,592,-1027,152,-611,1248,130,1056,507,792,-5,6432,512,256,-760,4960,37,712,396,56,118,4720,1414,5112,512,6248,2,-1,?
2017-03-27 15:09:56.577000,499,7064,-39,592,-1029,152,-604,1248,133,1056,505,792,-6,6432,524,256,-779,4960,39,712,382,56,99,4720,1406,5112,510,6248,2,-1,?
2017-03-27 15:09:56.585000,509,7064,-38,592,-1019,152,-607,1248,136,1056,503,792,3,6432,540,256,-777,4960,50,712,395,56,95,4720,1423,5112,518,6248,2,-1,?
2017-03-27 15:09:56.592000,522,7064,-33,592,-1029,152,-610,1248,135,1056,504,792,3,6432,551,256,-764,4960,24,712,411,56,97,4720,1434,5112,518,6248,2,-1,?
2017-03-27 15:09:56.601000,515,7064,-38,592,-1040,152,-603,1248,125,1056,501,792,-3,6432,548,256,-769,4960,-3,712,414,56,92,4720,1428,5112,516,6248,2,-1,?
2017-03-27 15:09:56.607000,519,7064,-40,592,-1022,152,-603,1248,108,1056,481,792,-5,6432,544,256,-757,4960,4,712,419,56,87,4720,1426,5112,526,6248,1,-1,?
2017-03-27 15:09:56.616000,537,7064,-39,592,-1001,152,-607,1248,104,1056,471,792,-17,6432,545,256,-735,4960,-2,712,428,56,76,4720,1436,5112,530,6248,2,-1,?
2017-03-27 15:09:56.623000,538,7064,-39,592,-998,152,-594,1248,123,1056,496,792,-30,6432,545,256,-750,4960,-19,712,431,56,69,4720,1443,5112,533,6248,1,0,?
2017-03-27 15:09:56.630000,524,7064,-39,592,-996,152,-582,1248,139,1056,512,792,-21,6432,538,256,-777,4960,-22,712,427,56,77,4720,1435,5112,535,6248,2,0,?
2017-03-27 15:09:56.638000,523,7064,-34,592,-1001,152,-587,1248,127,1056,484,792,-26,6432,528,256,-773,4960,-34,712,418,56,67,4720,1421,5112,521,6248,2,0,?
2017-03-27 15:09:56.645000,540,7064,-32,592,-1005,152,-587,1248,119,1056,465,792,-54,6432,526,256,-773,4960,-43,712,424,56,47,4720,1425,5112,520,6248,2,0,?
2017-03-27 15:09:56.653000,562,7064,-36,592,-987,152,-584,1248,126,1056,482,792,-55,6432,534,256,-794,4960,-24,712,453,56,73,4720,1449,5112,548,6248,2,1,?
2017-03-27 15:09:56.662000,567,7064,-35,592,-967,152,-589,1248,127,1056,489,792,-35,6432,538,256,-788,4960,-10,712,472,56,117,4720,1458,5112,566,6248,2,1,?
2017-03-27 15:09:56.671000,559,7064,-36,592,-970,152,-589,1248,125,1056,478,792,-24,6432,545,256,-754,4960,-17,712,470,56,129,4720,1447,5112,561,6248,2,0,?
2017-03-27 15:09:56.678000,548,7064,-41,592,-977,152,-579,1248,123,1056,477,792,-33,6432,550,256,-760,4960,-23,712,453,56,98,4720,1435,5112,551,6248,2,0,?
2017-03-27 15:09:56.686000,538,7064,-39,592,-974,152,-569,1248,114,1056,469,792,-63,6432,543,256,-778,4960,-20,712,433,56,81,4720,1423,5112,544,6248,2,0,?
2017-03-27 15:09:56.693000,561,7064,-33,592,-970,152,-571,1248,111,1056,448,792,-66,6432,541,256,-766,4960,-23,712,452,56,85,4720,1447,5112,556,6248,2,0,?
2017-03-27 15:09:56.701000,586,7064,-32,592,-962,152,-575,1248,113,1056,430,792,-36,6432,552,256,-765,4960,-12,712,492,56,76,4720,1482,5112,576,6248,2,0,?
2017-03-27 15:09:56.708000,562,7064,-36,592,-960,152,-565,1248,107,1056,424,792,-42,6432,544,256,-752,4960,34,712,480,56,94,4720,1471,5112,567,6248,2,0,?
2017-03-27 15:09:56.716000,550,7048,-32,592,-968,152,-566,1248,107,1056,445,792,-69,6432,527,256,-724,4960,42,712,452,56,124,4720,1469,5112,557,6248,2,-1,?
2017-03-27 15:09:56.727000,581,7048,-30,592,-951,152,-570,1248,110,1056,474,792,-47,6432,546,256,-718,4960,15,712,464,56,105,4720,1494,5112,576,6248,2,-1,?
2017-03-27 15:09:56.733000,587,7048,-37,592,-942,152,-566,1248,107,1056,471,792,-22,6432,568,256,-706,4960,30,712,465,56,56,4720,1478,5112,574,6264,2,-2,?
2017-03-27 15:09:56.740000,568,7048,-37,592,-972,128,-558,1248,116,1056,464,792,-35,6432,550,256,-691,4960,33,712,439,56,46,4720,1448,5112,553,6264,2,-2,?
2017-03-27 15:09:56.748000,565,7048,-35,592,-978,128,-542,1248,136,1056,476,792,-40,6432,534,256,-706,4960,3,712,437,56,55,4720,1447,5112,561,6264,2,-3,?
2017-03-27 15:09:56.758000,566,7048,-36,592,-947,128,-533,1248,136,1072,466,792,-27,6432,540,256,-707,4960,21,712,454,56,42,4720,1436,5112,576,6264,2,-3,?
2017-03-27 15:09:56.766000,565,7048,-37,592,-946,128,-553,1248,115,1072,435,792,-25,6432,518,256,-692,4960,59,712,456,56,32,4720,1424,5112,569,6264,2,-3,?
2017-03-27 15:09:56.772000,561,7048,-39,592,-957,128,-568,1248,112,1072,430,792,-33,6448,474,256,-711,4960,50,712,448,56,35,4720,1435,5112,560,6264,2,-3,?
2017-03-27 15:09:56.780000,550,7048,-36,592,-948,128,-565,1248,122,1072,454,792,-37,6448,455,272,-715,4960,47,712,441,56,55,4720,1426,5112,559,6264,2,-3,?
2017-03-27 15:09:56.789000,545,7048,-33,592,-954,128,-577,1248,125,1072,471,792,-50,6448,460,272,-705,4984,51,712,430,56,53,4720,1402,5112,547,6264,2,-3,?
2017-03-27 15:09:56.795000,544,7048,-34,592,-961,128,-581,1248,129,1072,477,792,-59,6448,435,272,-716,4984,42,744,413,56,47,4720,1397,5112,535,6264,2,-3,?
2017-03-27 15:09:56.805000,549,7048,-37,592,-948,128,-568,1248,131,1072,484,792,-46,6448,349,272,-719,4984,47,744,415,32,66,4720,1414,5112,539,6264,2,-3,?
2017-03-27 15:09:56.813000,556,7048,-39,592,-939,128,-566,1248,133,1072,486,792,-33,6448,269,272,-716,4984,51,744,424,32,74,4720,1432,5112,551,6264,2,-3,?
2017-03-27 15:09:56.818000,547,7048,-41,592,-940,128,-572,1248,136,1072,480,792,-34,6448,258,272,-719,4984,42,744,413,32,64,4720,1428,4992,557,6264,2,-3,?
2017-03-27 15:09:56.826000,540,7048,-35,592,-943,128,-585,1248,125,1072,471,792,-39,6448,252,272,-725,4984,31,760,401,32,69,4720,1417,4992,557,6264,2,-3,?
2017-03-27 15:09:56.834000,550,7048,-32,592,-949,128,-591,1248,117,1072,474,792,-36,6448,215,272,-745,4984,22,760,403,48,88,4720,1421,4992,556,6264,2,-3,?
2017-03-27 15:09:56.843000,560,7048,-36,592,-946,128,-580,1248,133,1072,496,792,-13,6448,204,272,-745,4984,34,760,407,48,93,4720,1428,4992,560,6264,2,-3,?
2017-03-27 15:09:56.850000,555,7048,-40,592,-934,128,-574,1248,140,1072,504,792,-1,6448,199,272,-711,4984,57,760,409,48,94,4720,1423,4992,565,6264,2,-3,?
2017-03-27 15:09:56.860000,543,7048,-36,592,-946,128,-594,1248,116,1072,480,792,-26,6448,174,272,-707,4984,47,760,400,48,97,4720,1416,4992,550,6264,3,-3,?
2017-03-27 15:09:56.865000,546,7048,-34,592,-963,128,-615,1248,111,1072,472,792,-43,6448,172,272,-743,4984,5,760,393,48,94,4720,1427,4992,534,6264,3,-2,?
2017-03-27 15:09:56.873000,562,7048,-35,592,-953,128,-609,1248,132,1072,494,792,-19,6448,196,272,-751,4984,-19,760,408,48,100,4720,1447,4992,547,6264,3,-2,?
2017-03-27 15:09:56.881000,568,7048,-35,592,-943,128,-603,1248,141,1072,502,792,12,6448,229,272,-730,4984,-21,760,421,48,106,4720,1465,4992,558,6264,3,-2,?
2017-03-27 15:09:56.889000,573,7048,-36,592,-952,128,-606,1248,129,1072,493,792,15,6448,247,272,-718,4984,-37,760,415,48,95,4720,1465,4992,550,6264,3,-2,?
2017-03-27 15:09:56.896000,578,7048,-36,592,-952,128,-611,1248,119,1072,484,792,-1,6448,239,272,-712,4984,-57,760,406,48,71,4720,1449,4992,545,6264,3,-2,?
2017-03-27 15:09:56.907000,560,7048,-36,592,-947,128,-615,1248,116,1072,480,792,-13,6448,264,272,-696,4984,-50,760,400,48,59,4720,1445,4992,545,6264,3,-2,?
2017-03-27 15:09:56.913000,546,7048,-40,592,-955,128,-617,1248,114,1072,481,792,-15,6448,352,272,-686,4984,-40,760,393,48,66,4720,1445,4992,539,6264,3,-1,?
2017-03-27 15:09:56.921000,551,7048,-39,592,-966,128,-621,1248,106,1072,476,792,-27,6448,404,272,-708,4984,-69,760,388,48,54,4720,1419,4992,531,6264,3,-1,?
2017-03-27 15:09:56.929000,553,7048,-34,592,-967,128,-626,1248,100,1072,468,792,-35,6448,386,272,-723,4984,-95,760,381,48,29,4720,1390,4992,527,6264,3,-1,?
2017-03-27 15:09:56.937000,553,7048,-37,592,-957,128,-625,1248,108,1072,476,792,-33,6448,390,272,-711,4984,-89,760,377,48,19,4720,1394,4992,527,6264,3,-1,?
2017-03-27 15:09:56.946000,554,7048,-44,592,-952,128,-617,1248,113,1072,486,792,-36,6448,434,272,-715,4984,-100,760,369,48,19,4720,1406,4992,522,6264,3,-2,?
2017-03-27 15:09:56.952000,543,7048,-46,592,-967,128,-621,1248,99,1072,470,792,-44,6448,450,272,-723,4984,-115,760,361,48,18,4720,1403,4992,514,6264,3,-2,?
2017-03-27 15:09:56.961000,530,7048,-43,592,-979,128,-626,1248,91,1072,463,792,-46,6448,440,272,-708,4984,-99,760,360,48,6,4720,1401,4992,510,6264,3,-2,?
2017-03-27 15:09:56.967000,539,7048,-38,592,-960,128,-617,1248,100,1072,466,792,-36,6448,441,272,-700,4984,-83,760,367,48,-7,4720,1405,4992,516,6264,2,-1,?
2017-03-27 15:09:56.975000,560,7048,-34,592,-941,128,-609,1248,96,1072,429,792,-28,6448,445,272,-706,4984,-73,760,385,48,8,4720,1417,4992,533,6264,3,-1,?
2017-03-27 15:09:56.985000,565,7048,-31,592,-941,128,-604,1248,80,1072,387,792,-51,6448,429,272,-709,4984,-41,760,402,48,33,4720,1423,4992,545,6264,2,-1,?
2017-03-27 15:09:56.991000,556,7048,-35,592,-951,128,-591,1248,89,1072,418,792,-74,6448,410,272,-706,4984,-25,760,400,48,21,4720,1404,4992,542,6264,2,-1,?
2017-03-27 15:09:56.999000,556,7048,-42,592,-985,128,-593,1248,107,1072,476,792,-59,6448,412,272,-699,4984,-56,760,382,48,9,4720,1400,4992,524,6264,2,0,?
2017-03-27 15:09:57.006000,562,7048,-38,592,-1000,128,-615,1248,106,1072,472,792,-44,6448,419,272,-700,4984,-99,760,374,48,17,4720,1454,4992,517,6264,3,0,?
2017-03-27 15:09:57.014000,556,7048,-31,592,-955,128,-609,1248,100,1072,446,792,-63,6448,417,272,-711,4984,-123,760,384,48,12,4720,1506,4992,534,6264,2,0,?
2017-03-27 15:09:57.022000,554,7048,-33,592,-895,128,-578,1248,102,1072,448,792,-75,6448,409,272,-724,4984,-145,760,390,48,17,4720,1510,4992,549,6264,3,0,?
2017-03-27 15:09:57.030000,561,7048,-34,592,-872,128,-575,1248,98,1072,434,792,-69,6448,423,272,-733,4984,-193,760,385,48,23,4720,1501,4992,544,6264,3,0,?
2017-03-27 15:09:57.038000,549,7048,-29,592,-858,128,-589,1248,97,1072,409,792,-79,6448,458,272,-719,4984,-252,760,367,48,-1,4720,1491,4992,538,6264,3,0,?
2017-03-27 15:09:57.047000,536,7048,-26,592,-840,128,-575,1248,108,1072,429,792,-94,6448,475,272,-696,4984,-296,760,337,48,-38,4720,1468,4992,528,6264,3,0,?
2017-03-27 15:09:57.055000,539,7048,-24,592,-843,128,-560,1248,100,1072,447,792,-94,6448,471,272,-712,4984,-332,760,308,48,-49,4720,1447,4992,514,6264,3,0,?
2017-03-27 15:09:57.061000,531,7048,-22,592,-835,128,-571,1248,83,1072,414,792,-90,6448,464,272,-738,4984,-379,760,301,48,-59,4720,1449,4992,513,6264,3,0,?
2017-03-27 15:09:57.069000,516,7048,-23,592,-799,128,-570,1248,92,1072,401,792,-89,6448,467,272,-728,4984,-421,760,296,48,-90,4720,1443,4992,514,6264,3,0,?
2017-03-27 15:09:57.078000,514,7048,-27,592,-768,128,-546,1248,101,1072,417,792,-102,6448,450,272,-719,4984,-431,760,285,48,-125,4720,1430,4992,513,6264,3,0,?
2017-03-27 15:09:57.085000,522,7048,-31,592,-768,128,-542,1248,87,1072,404,792,-124,6448,362,272,-728,4984,-418,760,289,48,-137,4720,1436,4992,521,6264,3,0,?
2017-03-27 15:09:57.095000,532,7048,-28,592,-784,128,-554,1248,89,1072,396,792,-129,6448,241,272,-719,4984,-404,760,291,48,-113,4720,1442,4992,526,6264,3,0,?
2017-03-27 15:09:57.101000,538,7048,-26,592,-789,128,-545,1248,107,1072,418,792,-112,6448,187,272,-702,4984,-398,760,286,48,-113,4720,1443,4992,522,6264,3,0,?
2017-03-27 15:09:57.108000,524,7048,-29,592,-783,128,-535,1248,107,1072,424,792,-115,6448,198,272,-701,4984,-378,760,282,48,-141,4720,1440,4992,517,6264,3,0,?
2017-03-27 15:09:57.116000,510,7048,-31,592,-779,128,-542,1248,91,1072,411,792,-137,6448,212,272,-709,4984,-345,760,271,48,-156,4720,1426,4992,514,6264,3,-1,?
2017-03-27 15:09:57.123000,519,7048,-33,592,-780,128,-558,1248,86,1072,412,792,-137,6448,230,272,-705,4984,-337,760,271,48,-170,4720,1429,4992,517,6264,4,-1,?
2017-03-27 15:09:57.132000,533,7048,-40,592,-776,128,-578,1248,81,1072,412,792,-112,6448,235,272,-689,4984,-339,760,286,48,-164,4720,1451,4992,525,6264,4,-1,?
2017-03-27 15:09:57.139000,532,7048,-40,592,-781,128,-577,1248,74,1072,390,792,-98,6448,228,272,-669,4984,-318,760,284,48,-126,4720,1443,4992,522,6264,4,-1,?
2017-03-27 15:09:57.148000,523,7048,-35,592,-781,128,-550,1248,82,1072,388,792,-104,6448,287,272,-662,4984,-302,760,276,48,-102,4720,1429,4992,518,6264,4,-1,?
2017-03-27 15:09:57.155000,517,7048,-37,592,-770,128,-549,1248,108,1072,426,792,-87,6448,378,272,-665,4984,-315,760,283,48,-104,4720,1439,4992,528,6264,4,-1,?
2017-03-27 15:09:57.165000,517,7048,-41,592,-780,128,-570,1248,120,1072,447,792,-69,6448,398,272,-656,4984,-319,760,283,48,-84,4720,1440,4992,529,6264,4,-1,?
2017-03-27 15:09:57.170000,523,7048,-40,592,-801,128,-573,1248,101,1072,438,792,-71,6448,376,272,-664,4984,-315,760,278,48,-72,4720,1438,4992,522,6264,4,-1,?
2017-03-27 15:09:57.178000,515,7048,-42,592,-807,128,-574,1248,97,1072,454,792,-73,6448,377,272,-684,4984,-327,760,271,48,-94,4720,1438,4992,513,6264,4,-2,?
2017-03-27 15:09:57.187000,502,7048,-47,592,-813,128,-574,1248,112,1072,482,792,-67,6448,385,272,-669,4984,-326,760,256,48,-97,4720,1426,4992,508,6264,4,-3,?
2017-03-27 15:09:57.196000,516,7048,-54,592,-812,128,-569,1248,115,1072,481,792,-34,6448,379,272,-647,4984,-322,760,260,48,-85,4720,1431,4992,509,6264,3,-3,?
2017-03-27 15:09:57.203000,528,7048,-58,592,-801,128,-581,1248,105,1072,448,792,-26,6448,366,272,-664,4984,-337,760,275,48,-81,4720,1444,4992,512,6264,3,-3,?
2017-03-27 15:09:57.210000,505,7048,-49,592,-801,128,-594,1248,99,1072,401,792,-83,6448,353,272,-679,4984,-340,760,264,48,-91,4720,1432,4992,499,6264,3,-3,?
2017-03-27 15:09:57.219000,486,7056,-40,592,-807,128,-584,1248,104,1072,390,792,-128,6448,347,272,-678,4984,-336,760,239,48,-113,4720,1412,4992,484,6264,3,-3,?
2017-03-27 15:09:57.225000,497,7056,-42,576,-807,128,-577,1248,114,1072,440,792,-99,6448,327,272,-700,4984,-352,760,236,48,-118,4720,1417,4992,483,6264,3,-4,?
2017-03-27 15:09:57.234000,512,7056,-46,576,-821,128,-591,1248,122,1072,486,792,-67,6448,306,272,-708,4984,-354,760,253,48,-94,4720,1439,4992,479,6256,3,-5,?
2017-03-27 15:09:57.242000,514,7056,-41,576,-819,144,-598,1248,123,1072,486,792,-60,6448,318,272,-672,4984,-336,760,267,48,-72,4720,1450,4992,471,6256,3,-5,?
2017-03-27 15:09:57.250000,512,7056,-31,576,-787,144,-593,1264,132,1072,534,792,-25,6448,330,272,-646,4984,-327,760,275,48,-89,4720,1443,4992,471,6256,3,-6,?
2017-03-27 15:09:57.258000,520,7056,-30,576,-762,144,-587,1264,137,1080,571,792,-19,6448,304,272,-655,4984,-316,760,282,48,-106,4720,1441,4992,480,6256,3,-6,?
2017-03-27 15:09:57.264000,532,7056,-30,576,-746,144,-572,1264,111,1080,466,784,-75,6448,271,272,-664,4984,-305,760,293,48,-101,4720,1454,4992,499,6256,3,-6,?
2017-03-27 15:09:57.273000,526,7056,-31,576,-736,144,-558,1264,101,1080,381,784,-108,6440,256,272,-650,4984,-325,760,301,48,-94,4720,1457,4992,506,6256,3,-6,?
2017-03-27 15:09:57.281000,516,7056,-32,576,-743,144,-557,1264,131,1080,447,784,-75,6440,254,280,-636,4984,-340,760,300,48,-92,4720,1449,4992,491,6256,2,-6,?
2017-03-27 15:09:57.288000,516,7056,-31,576,-758,144,-559,1264,147,1080,504,784,-48,6440,262,280,-643,4960,-341,760,293,48,-96,4720,1441,4992,477,6256,2,-6,?
2017-03-27 15:09:57.296000,507,7056,-35,576,-758,144,-551,1264,140,1080,472,784,-64,6440,265,280,-648,4960,-364,736,290,48,-112,4720,1437,4992,480,6256,2,-6,?
2017-03-27 15:09:57.305000,506,7056,-38,576,-760,144,-546,1264,143,1080,466,784,-67,6440,266,280,-639,4960,-381,736,293,48,-126,4720,1444,4992,485,6256,2,-6,?
2017-03-27 15:09:57.312000,518,7056,-37,576,-768,144,-556,1264,137,1080,484,784,-57,6440,283,280,-639,4960,-371,736,298,48,-124,4704,1454,4992,483,6256,2,-6,?
2017-03-27 15:09:57.319000,518,7056,-34,576,-763,144,-561,1264,124,1080,472,784,-65,6440,310,280,-651,4960,-377,736,301,48,-113,4704,1455,4992,487,6256,2,-6,?
2017-03-27 15:09:57.327000,511,7056,-34,576,-759,144,-554,1264,130,1080,465,784,-68,6440,337,280,-642,4960,-389,744,306,48,-106,4704,1459,4992,496,6256,3,-6,?
2017-03-27 15:09:57.336000,515,7056,-33,576,-759,144,-559,1264,129,1080,466,784,-58,6440,360,280,-606,4960,-372,744,317,48,-102,4704,1465,4992,507,6256,3,-6,?
2017-03-27 15:09:57.344000,518,7056,-31,576,-762,144,-570,1264,112,1080,470,784,-57,6440,363,280,-603,4960,-358,744,319,48,-100,4720,1458,4992,501,6256,3,-6,?
2017-03-27 15:09:57.350000,510,7056,-35,576,-763,144,-566,1264,117,1080,474,784,-65,6440,346,280,-640,4960,-372,744,314,48,-105,4720,1449,4992,484,6256,3,-5,?
2017-03-27 15:09:57.359000,508,7056,-42,576,-758,144,-558,1264,130,1080,475,784,-67,6440,355,280,-653,4960,-379,744,313,48,-107,4720,1460,4992,484,6256,3,-5,?
2017-03-27 15:09:57.366000,519,7056,-40,576,-756,144,-559,1264,123,1080,472,784,-62,6440,397,280,-648,4960,-366,744,319,48,-95,4720,1477,4992,488,6256,3,-4,?
2017-03-27 15:09:57.374000,516,7056,-33,576,-750,144,-557,1264,115,1080,469,784,-60,6440,427,280,-653,4960,-352,744,323,48,-97,4720,1474,4992,484,6256,3,-4,?
2017-03-27 15:09:57.383000,517,7056,-34,576,-740,144,-558,1264,116,1080,471,784,-56,6440,451,280,-633,4960,-340,744,323,48,-106,4720,1467,4992,492,6256,3,-3,?
2017-03-27 15:09:57.390000,562,7056,-36,576,-734,144,-564,1264,113,1080,471,784,-60,6440,477,280,-602,4960,-327,744,322,48,-102,4720,1473,4992,503,6256,2,-3,?
2017-03-27 15:09:57.399000,580,7056,-41,576,-748,144,-555,1264,114,1080,468,784,-66,6440,493,280,-605,4960,-316,744,313,48,-111,4720,1470,4992,494,6256,2,-2,?
2017-03-27 15:09:57.407000,534,7056,-39,576,-775,144,-552,1264,124,1080,475,784,-57,6440,502,280,-617,4960,-341,744,293,48,-123,4720,1463,4992,481,6256,2,-2,?
2017-03-27 15:09:57.416000,507,7056,-32,576,-772,144,-559,1264,130,1080,482,784,-52,6440,507,280,-611,4960,-394,744,279,48,-126,4720,1465,4992,477,6256,2,-1,?
2017-03-27 15:09:57.424000,506,7056,-34,576,-743,144,-541,1264,132,1080,475,784,-64,6440,504,280,-615,4960,-418,744,285,48,-152,4720,1461,4992,476,6256,2,-1,?
2017-03-27 15:09:57.429000,482,7056,-30,576,-721,144,-518,1264,131,1080,471,784,-69,6440,500,280,-617,4960,-417,744,295,48,-160,4720,1456,4992,492,6256,2,-1,?
2017-03-27 15:09:57.437000,486,7056,-22,576,-688,144,-519,1264,130,1080,467,784,-62,6440,501,280,-607,4960,-439,744,305,48,-140,4720,1465,4992,517,6256,2,0,?
2017-03-27 15:09:57.446000,524,7056,-26,576,-646,144,-521,1264,133,1080,469,784,-68,6440,500,280,-606,4960,-459,744,306,48,-150,4720,1462,4992,530,6256,2,0,?
2017-03-27 15:09:57.453000,530,7056,-31,576,-638,144,-512,1264,139,1080,492,784,-63,6440,502,280,-598,4960,-438,744,303,48,-170,4720,1445,4992,535,6256,2,0,?
2017-03-27 15:09:57.462000,523,7056,-28,576,-653,144,-513,1264,137,1080,501,784,-39,6440,498,280,-576,4960,-413,744,308,48,-164,4720,1454,4992,542,6256,2,0,?
2017-03-27 15:09:57.469000,523,7056,-31,576,-651,144,-516,1264,130,1080,476,784,-39,6440,493,280,-574,4960,-419,744,314,48,-164,4720,1470,4992,544,6256,2,0,?
2017-03-27 15:09:57.478000,519,7056,-37,576,-644,144,-512,1264,134,1080,469,784,-57,6440,496,280,-586,4960,-412,744,314,48,-168,4720,1458,4992,545,6256,2,0,?
2017-03-27 15:09:57.483000,522,7056,-32,576,-647,144,-509,1264,141,1080,489,784,-61,6440,495,280,-585,4960,-381,744,309,48,-153,4720,1449,4992,553,6256,2,0,?
2017-03-27 15:09:57.491000,534,7056,-28,576,-645,144,-502,1264,143,1080,486,784,-52,6440,485,280,-578,4960,-360,744,318,48,-137,4720,1464,4992,557,6256,2,0,?
2017-03-27 15:09:57.501000,536,7056,-34,576,-638,144,-497,1264,137,1080,464,784,-51,6440,476,280,-584,4960,-360,744,326,48,-127,4720,1460,4992,552,6256,2,0,?
2017-03-27 15:09:57.508000,518,7056,-37,576,-659,144,-501,1264,133,1080,467,784,-66,6440,473,280,-595,4960,-389,744,305,48,-133,4720,1426,4992,538,6256,2,0,?
2017-03-27 15:09:57.516000,519,7056,-38,576,-690,144,-511,1264,143,1080,483,784,-65,6440,475,280,-592,4960,-392,744,297,48,-142,4720,1417,4992,537,6256,2,0,?
2017-03-27 15:09:57.525000,544,7056,-36,576,-690,144,-507,1264,148,1080,478,784,-30,6440,473,280,-579,4960,-308,744,342,48,-114,4720,1442,4992,556,6256,2,0,?
2017-03-27 15:09:57.531000,554,7056,-37,576,-697,144,-502,1264,139,1080,472,784,-11,6440,479,280,-558,4960,-186,744,389,48,-72,4720,1453,4992,573,6256,2,0,?
2017-03-27 15:09:57.538000,548,7056,-42,576,-747,144,-526,1264,134,1080,494,784,-26,6440,487,280,-539,4960,-88,744,412,48,-53,4720,1460,4992,579,6256,1,0,?
2017-03-27 15:09:57.546000,554,7056,-38,576,-788,144,-550,1264,142,1080,503,784,-39,6440,493,280,-529,4960,-14,744,436,48,-36,4720,1469,4992,582,6256,1,0,?
2017-03-27 15:09:57.554000,557,7056,-42,576,-808,144,-545,1264,153,1080,500,784,-20,6440,495,280,-517,4960,46,744,461,48,6,4720,1466,4992,583,6256,1,0,?
2017-03-27 15:09:57.561000,552,7056,-55,576,-837,144,-542,1264,165,1080,521,784,11,6440,486,280,-497,4960,107,744,487,48,45,4720,1476,4992,588,6256,1,0,?
2017-03-27 15:09:57.569000,561,7056,-48,576,-869,144,-557,1264,172,1080,544,784,13,6440,474,280,-482,4960,170,744,510,48,62,4720,1496,4992,599,6256,1,0,?
2017-03-27 15:09:57.577000,574,7056,-39,576,-890,144,-562,1264,168,1080,547,784,15,6440,473,280,-470,4960,227,744,528,48,86,4720,1507,4992,607,6256,0,-1,?
2017-03-27 15:09:57.586000,571,7056,-40,576,-906,144,-561,1264,161,1080,555,784,22,6440,471,280,-459,4960,291,744,548,48,113,4720,1518,4992,608,6256,0,-1,?
2017-03-27 15:09:57.593000,572,7056,-43,576,-929,144,-574,1264,168,1080,572,784,22,6440,461,280,-460,4960,344,744,563,48,127,4720,1526,4992,606,6256,0,-2,?
2017-03-27 15:09:57.602000,577,7056,-35,576,-950,144,-584,1264,177,1080,572,784,38,6440,453,280,-458,4960,353,744,561,48,131,4720,1525,4992,599,6256,0,-2,?
2017-03-27 15:09:57.608000,562,7056,-30,576,-960,144,-579,1264,153,1080,535,784,46,6440,435,280,-460,4960,328,744,549,48,124,4720,1516,4992,591,6256,0,-3,?
2017-03-27 15:09:57.617000,554,7056,-33,576,-955,144,-570,1264,126,1080,486,784,20,6440,408,280,-476,4960,303,744,542,48,119,4720,1511,4992,586,6256,0,-3,?
2017-03-27 15:09:57.625000,574,7056,-36,576,-947,144,-570,1264,143,1080,485,784,13,6440,381,280,-487,4960,304,744,549,48,125,4720,1517,4992,591,6256,0,-3,?
2017-03-27 15:09:57.634000,582,7056,-35,576,-949,144,-583,1264,166,1080,521,784,35,6440,356,280,-489,4960,304,744,555,48,126,4720,1522,4992,589,6256,0,-3,?
2017-03-27 15:09:57.642000,560,7056,-35,576,-953,144,-590,1264,165,1080,537,784,31,6440,330,280,-500,4960,271,744,535,48,106,4720,1508,4992,569,6256,0,-4,?
2017-03-27 15:09:57.650000,556,7056,-34,576,-955,144,-581,1264,161,1080,537,784,14,6440,319,280,-500,4960,247,744,510,48,88,4720,1497,4992,560,6256,0,-4,?
2017-03-27 15:09:57.658000,569,7056,-37,576,-958,144,-588,1264,156,1080,541,784,1,6440,332,280,-497,4960,257,744,511,48,93,4720,1501,4992,563,6256,0,-4,?
2017-03-27 15:09:57.665000,567,7056,-41,576,-959,144,-606,1264,144,1080,531,784,-7,6440,330,280,-512,4960,249,744,520,48,96,4720,1507,4992,563,6256,0,-4,?
2017-03-27 15:09:57.674000,557,7056,-37,576,-954,144,-607,1264,125,1080,509,784,4,6440,316,280,-530,4960,231,744,500,48,80,4720,1503,4992,558,6256,0,-4,?
2017-03-27 15:09:57.681000,549,7056,-35,576,-951,144,-609,1264,106,1080,501,784,5,6440,335,280,-534,4960,229,744,473,48,58,4720,1486,4992,546,6256,0,-4,?
2017-03-27 15:09:57.687000,545,7056,-40,576,-945,144,-612,1264,111,1080,503,784,-3,6440,369,280,-525,4960,216,744,474,48,50,4720,1482,4992,534,6256,0,-4,?
2017-03-27 15:09:57.695000,549,7056,-38,576,-921,144,-586,1264,123,1080,502,784,1,6440,373,280,-524,4960,188,744,485,48,59,4720,1500,4992,544,6256,1,-4,?
2017-03-27 15:09:57.704000,557,7056,-32,576,-897,144,-565,1264,120,1080,496,784,10,6440,357,280,-533,4960,163,744,486,48,67,4720,1509,4992,557,6256,1,-4,?
2017-03-27 15:09:57.713000,549,7056,-32,576,-898,144,-585,1264,112,1080,478,784,-2,6440,344,280,-527,4960,140,744,473,48,56,4720,1492,4992,543,6256,1,-4,?
2017-03-27 15:09:57.719000,541,7056,-36,576,-900,144,-591,1264,104,1080,468,784,-24,6440,348,280,-514,4960,128,744,457,48,50,4720,1478,4992,530,6256,1,-4,?
2017-03-27 15:09:57.726000,554,7064,-36,576,-890,144,-571,1264,112,1080,487,784,-18,6440,362,280,-511,4960,125,744,467,48,72,4720,1492,4992,543,6256,1,-4,?
2017-03-27 15:09:57.733000,555,7064,-37,552,-885,144,-570,1264,126,1080,493,784,-11,6440,354,280,-523,4960,113,744,486,48,89,4720,1501,4992,554,6256,1,-3,?
2017-03-27 15:09:57.740000,544,7064,-37,552,-880,144,-577,1264,119,1080,483,784,-34,6440,353,280,-531,4960,111,744,484,48,90,4720,1502,4992,552,6264,1,-3,?
2017-03-27 15:09:57.749000,565,7064,-37,552,-868,136,-573,1264,112,1080,493,784,-37,6440,386,280,-515,4960,134,744,501,48,108,4720,1529,4992,568,6264,1,-2,?
2017-03-27 15:09:57.759000,589,7064,-34,552,-856,136,-570,1264,125,1080,506,784,-14,6440,409,280,-483,4960,141,744,536,48,116,4720,1548,4992,594,6264,1,-2,?
2017-03-27 15:09:57.767000,566,7064,-28,552,-848,136,-563,1264,129,1064,497,784,-24,6440,405,280,-482,4960,113,744,525,48,91,4720,1521,4992,595,6264,1,-2,?
2017-03-27 15:09:57.773000,555,7064,-34,552,-840,136,-552,1264,127,1064,499,792,-23,6440,401,280,-493,4960,103,744,505,48,96,4720,1516,4992,589,6264,1,-1,?
2017-03-27 15:09:57.780000,582,7064,-38,552,-841,136,-556,1264,135,1064,516,792,18,6432,398,280,-471,4960,141,744,519,48,132,4720,1546,4992,598,6264,1,-1,?
2017-03-27 15:09:57.788000,582,7064,-29,552,-854,136,-561,1264,134,1064,513,792,24,6432,391,264,-451,4960,158,744,512,48,129,4720,1535,4992,598,6264,1,-1,?
2017-03-27 15:09:57.796000,554,7064,-22,552,-860,136,-556,1264,124,1064,508,792,4,6432,392,264,-459,4864,139,744,484,48,108,4720,1505,4992,585,6264,1,0,?
2017-03-27 15:09:57.805000,552,7064,-24,552,-857,136,-570,1264,125,1064,525,792,19,6432,394,264,-465,4864,162,744,487,48,126,4720,1509,4992,588,6264,1,1,?
2017-03-27 15:09:57.815000,576,7064,-28,552,-864,136,-578,1264,132,1064,534,792,43,6432,385,264,-452,4864,194,744,500,48,141,4720,1526,4992,597,6264,1,1,?
2017-03-27 15:09:57.820000,581,7064,-26,552,-874,136,-571,1264,137,1064,531,792,31,6432,368,264,-444,4864,163,744,486,48,125,4728,1512,4992,587,6264,1,1,?
2017-03-27 15:09:57.826000,553,7064,-25,552,-876,136,-574,1264,136,1064,535,792,7,6432,357,264,-456,4864,113,744,456,48,93,4728,1496,5016,564,6264,1,2,?
2017-03-27 15:09:57.835000,532,7064,-24,552,-877,136,-572,1264,130,1064,524,792,-5,6432,324,264,-459,4864,111,736,442,48,59,4728,1517,5016,558,6264,1,2,?
2017-03-27 15:09:57.843000,545,7064,-30,552,-877,136,-567,1264,125,1064,501,792,-4,6432,290,264,-436,4864,118,736,453,40,38,4728,1548,5016,566,6264,1,2,?
2017-03-27 15:09:57.851000,557,7064,-40,552,-874,136,-576,1264,136,1064,500,792,2,6432,312,264,-425,4864,110,736,465,40,27,4728,1555,5016,570,6264,1,2,?
2017-03-27 15:09:57.862000,560,7064,-34,552,-875,136,-584,1264,137,1064,506,792,1,6432,357,264,-443,4864,111,736,465,40,34,4728,1562,5016,577,6264,1,3,?
2017-03-27 15:09:57.867000,572,7064,-26,552,-877,136,-584,1264,122,1064,504,792,6,6432,364,264,-454,4864,112,736,473,40,48,4728,1573,5016,582,6264,1,3,?
2017-03-27 15:09:57.877000,571,7064,-33,552,-869,136,-583,1264,121,1064,497,792,-1,6432,348,264,-447,4864,119,736,479,40,44,4728,1555,5016,584,6264,1,3,?
2017-03-27 15:09:57.882000,554,7064,-39,552,-857,136,-572,1264,119,1064,469,792,-28,6432,352,264,-449,4864,129,736,468,40,42,4728,1531,5016,583,6264,1,3,?
2017-03-27 15:09:57.891000,552,7064,-38,552,-859,136,-571,1264,102,1064,443,792,-32,6432,369,264,-440,4864,135,736,461,40,57,4728,1536,5016,576,6264,1,2,?
2017-03-27 15:09:57.898000,550,7064,-41,552,-871,136,-590,1264,101,1064,472,792,-20,6432,365,264,-415,4864,133,736,461,40,66,4728,1540,5016,569,6264,1,2,?
2017-03-27 15:09:57.907000,546,7064,-44,552,-864,136,-594,1264,118,1064,506,792,-22,6432,345,264,-419,4864,135,736,465,40,56,4728,1533,5016,571,6264,1,2,?
2017-03-27 15:09:57.913000,566,7064,-44,552,-855,136,-583,1264,117,1064,475,792,-27,6432,345,264,-447,4864,153,736,482,40,56,4728,1523,5016,585,6264,1,1,?
2017-03-27 15:09:57.920000,578,7064,-43,552,-866,136,-583,1264,106,1064,442,792,-26,6432,344,264,-426,4864,180,736,488,40,66,4728,1501,5016,591,6264,1,1,?
2017-03-27 15:09:57.930000,557,7064,-46,552,-870,136,-587,1264,97,1064,445,792,-30,6432,295,264,-382,4864,194,736,471,40,72,4728,1483,5016,578,6264,1,1,?
2017-03-27 15:09:57.938000,545,7064,-56,552,-864,136,-580,1264,93,1064,436,792,-27,6432,263,264,-394,4864,195,736,468,40,70,4728,1498,5016,575,6264,1,1,?
2017-03-27 15:09:57.946000,551,7064,-51,552,-875,136,-588,1264,106,1064,451,792,-21,6432,273,264,-432,4864,210,736,481,40,64,4728,1508,5016,587,6264,1,0,?
2017-03-27 15:09:57.952000,547,7064,-39,552,-893,136,-605,1264,112,1064,493,792,-31,6432,261,264,-434,4864,227,736,473,40,60,4728,1491,5016,580,6264,1,-1,?
2017-03-27 15:09:57.960000,544,7064,-41,552,-887,136,-598,1264,91,1064,468,792,-38,6432,257,264,-417,4864,226,736,470,40,63,4728,1496,5016,574,6264,1,-2,?
2017-03-27 15:09:57.968000,549,7064,-45,552,-876,136,-592,1264,84,1064,443,792,-31,6432,297,264,-414,4864,212,736,489,40,77,4728,1517,5016,585,6264,1,-2,?
2017-03-27 15:09:57.976000,548,7064,-35,552,-880,136,-605,1264,105,1064,476,792,-24,6432,322,264,-422,4864,189,736,487,40,74,4728,1512,5016,584,6264,1,-2,?
2017-03-27 15:09:57.984000,545,7064,-23,552,-869,136,-595,1264,113,1064,456,792,-31,6432,315,264,-432,4864,180,736,481,40,66,4728,1507,5016,579,6264,1,-3,?
2017-03-27 15:09:57.990000,554,7064,-27,552,-845,136,-571,1264,108,1064,412,792,-39,6432,300,264,-424,4864,207,736,504,40,85,4728,1517,5016,591,6264,1,-3,?
2017-03-27 15:09:57.999000,565,7064,-31,552,-841,136,-576,1264,112,1064,447,792,-22,6432,259,264,-415,4864,221,736,513,40,88,4728,1510,5016,599,6264,1,-3,?
2017-03-27 15:09:58.009000,550,7064,-32,552,-850,136,-582,1264,108,1064,483,792,-4,6432,214,264,-431,4864,180,736,482,40,57,4728,1493,5016,588,6264,1,-3,?
2017-03-27 15:09:58.016000,516,7064,-38,552,-857,136,-586,1264,102,1064,470,792,-26,6432,206,264,-462,4864,134,736,462,40,44,4728,1491,5016,563,6264,1,-3,?
2017-03-27 15:09:58.025000,510,7064,-38,552,-862,136,-607,1264,101,1064,470,792,-41,6432,212,264,-472,4864,126,736,467,40,52,4728,1495,5016,554,6264,1,-3,?
2017-03-27 15:09:58.032000,535,7064,-37,552,-836,136,-600,1264,99,1064,477,792,-7,6432,211,264,-432,4864,149,736,485,40,56,4728,1507,5016,582,6264,1,-3,?
2017-03-27 15:09:58.038000,547,7064,-35,552,-804,136,-573,1264,104,1064,470,792,4,6432,201,264,-408,4864,151,736,499,40,63,4728,1522,5016,601,6264,1,-3,?
