Timestamp,F3 Value,F3 Quality,FC5 Value,FC5 Quality,F7 Value,F7 Quality,T7 Value,T7 Quality,P7 Value,P7 Quality,O1 Value,O1 Quality,O2 Value,O2 Quality,P8 Value,P8 Quality,T8 Value,T8 Quality,F8 Value,F8 Quality,AF4 Value,AF4 Quality,FC6 Value,FC6 Quality,F4 Value,F4 Quality,AF3 Value,AF3 Quality,X Value,Y Value,Z Value
2017-03-21 14:21:47.047000,610,0,6,0,-575,0,-616,0,109,0,472,0,-227,0,239,0,1498,0,-26,0,407,0,-50,0,1195,0,521,0,2,-1,?
2017-03-21 14:21:47.054000,611,0,6,0,-579,0,-611,0,113,0,466,0,-223,0,246,0,1498,0,-14,0,412,0,-46,0,1200,0,523,0,2,-1,?
2017-03-21 14:21:47.061000,607,0,9,0,-577,0,-609,0,116,0,467,0,-245,0,228,0,1487,0,-30,0,402,0,-56,0,1197,0,526,0,2,-1,?
2017-03-21 14:21:47.070000,607,0,7,0,-574,0,-615,0,109,0,466,0,-249,0,224,0,1491,0,-45,0,382,0,-67,0,1180,0,522,0,2,-1,?
2017-03-21 14:21:47.077000,611,0,4,0,-571,0,-614,0,105,0,468,0,-235,0,238,0,1501,0,-35,0,396,0,-60,0,1188,0,520,0,2,-1,?
2017-03-21 14:21:47.085000,611,0,9,0,-573,0,-610,0,113,0,470,0,-226,0,243,0,1506,0,-19,0,425,0,-47,0,1205,0,523,0,2,-1,?
2017-03-21 14:21:47.093000,610,0,12,0,-577,0,-614,0,115,0,465,0,-224,0,244,0,1511,0,-17,0,415,0,-46,0,1198,0,523,0,2,-1,?
2017-03-21 14:21:47.101000,612,0,12,0,-573,0,-617,0,111,0,465,0,-242,0,232,0,1497,0,-34,0,392,0,-62,0,1189,0,522,0,2,-1,?
2017-03-21 14:21:47.108000,607,0,10,0,-575,0,-613,0,113,0,461,0,-248,0,226,0,1489,0,-45,0,389,0,-68,0,1183,0,523,0,2,-1,?
2017-03-21 14:21:47.116000,607,0,7,0,-577,0,-614,0,114,0,460,0,-230,0,238,0,1501,0,-29,0,407,0,-51,0,1189,0,522,0,2,-1,?
2017-03-21 14:21:47.124000,617,0,8,0,-573,0,-612,0,115,0,466,0,-220,0,245,0,1510,0,-15,0,420,0,-40,0,1202,0,522,0,2,-1,?
2017-03-21 14:21:47.133000,617,0,8,0,-572,0,-610,0,114,0,464,0,-228,0,238,0,1506,0,-28,0,400,0,-50,0,1200,0,520,0,2,-1,?
2017-03-21 14:21:47.140000,611,0,8,0,-572,0,-618,0,110,0,462,0,-247,0,217,0,1489,0,-46,0,388,0,-62,0,1192,0,522,0,2,-1,?
2017-03-21 14:21:47.148000,610,0,7,0,-576,0,-615,0,108,0,466,0,-241,0,224,0,1485,0,-35,0,403,0,-57,0,1191,0,523,0,2,-1,?
2017-03-21 14:21:47.155000,611,0,7,0,-577,0,-609,0,111,0,469,0,-220,0,246,0,1503,0,-12,0,422,0,-42,0,1201,0,523,0,2,-1,?
2017-03-21 14:21:47.164000,612,0,9,0,-573,0,-614,0,114,0,464,0,-220,0,249,0,1513,0,-18,0,417,0,-37,0,1206,0,521,0,2,-1,?
2017-03-21 14:21:47.172000,610,0,7,0,-573,0,-617,0,111,0,460,0,-229,0,239,0,1499,0,-39,0,395,0,-54,0,1193,0,516,0,2,-1,?
2017-03-21 14:21:47.180000,609,0,9,0,-573,0,-613,0,110,0,464,0,-246,0,217,0,1479,0,-45,0,396,0,-71,0,1184,0,520,0,2,-1,?
2017-03-21 14:21:47.187000,610,0,12,0,-574,0,-610,0,116,0,464,0,-243,0,220,0,1487,0,-31,0,408,0,-55,0,1189,0,520,0,2,-1,?
2017-03-21 14:21:47.195000,610,0,10,0,-574,0,-616,0,118,0,463,0,-220,0,247,0,1506,0,-18,0,413,0,-36,0,1200,0,517,0,2,-1,?
2017-03-21 14:21:47.203000,610,0,10,0,-574,0,-620,0,112,0,464,0,-225,0,243,0,1496,0,-27,0,413,0,-48,0,1202,0,523,0,2,-1,?
2017-03-21 14:21:47.211000,609,0,9,0,-581,0,-616,0,110,0,460,0,-232,0,227,0,1485,0,-36,0,402,0,-63,0,1193,0,521,0,2,-1,?
2017-03-21 14:21:47.219000,608,0,9,0,-579,0,-616,0,114,0,460,0,-231,0,225,0,1495,0,-30,0,404,0,-57,0,1198,0,519,0,2,-1,?
2017-03-21 14:21:47.227000,611,0,12,0,-576,0,-613,0,115,0,463,0,-231,0,237,0,1502,0,-19,0,413,0,-43,0,1203,0,520,0,2,-1,?
2017-03-21 14:21:47.233000,613,0,15,0,-577,0,-612,0,112,0,465,0,-230,0,248,0,1504,0,-20,0,413,0,-44,0,1194,0,520,0,2,-1,?
2017-03-21 14:21:47.242000,607,0,10,0,-578,0,-616,0,111,0,465,0,-233,0,240,0,1498,0,-36,0,406,0,-61,0,1194,0,521,0,2,-1,?
2017-03-21 14:21:47.250000,604,0,6,0,-586,0,-616,0,113,0,463,0,-236,0,231,0,1492,0,-41,0,394,0,-62,0,1192,0,520,0,2,-1,?
2017-03-21 14:21:47.258000,612,0,11,0,-581,0,-616,0,116,0,467,0,-240,0,229,0,1495,0,-29,0,403,0,-46,0,1195,0,521,0,2,-1,?
2017-03-21 14:21:47.266000,616,0,12,0,-572,0,-614,0,116,0,471,0,-231,0,237,0,1507,0,-16,0,422,0,-39,0,1205,0,523,0,2,-1,?
2017-03-21 14:21:47.273000,610,0,5,0,-577,0,-610,0,112,0,467,0,-219,0,247,0,1508,0,-22,0,414,0,-46,0,1202,0,522,0,2,-1,?
2017-03-21 14:21:47.280000,607,0,11,0,-581,0,-612,0,112,0,466,0,-238,0,233,0,1489,0,-41,0,394,0,-59,0,1190,0,520,0,2,-1,?
2017-03-21 14:21:47.288000,607,0,13,0,-580,0,-614,0,115,0,464,0,-243,0,228,0,1491,0,-41,0,389,0,-58,0,1185,0,516,0,2,-1,?
2017-03-21 14:21:47.297000,610,0,3,0,-573,0,-612,0,114,0,463,0,-224,0,241,0,1508,0,-26,0,407,0,-45,0,1203,0,518,0,2,-1,?
2017-03-21 14:21:47.304000,613,0,6,0,-571,0,-610,0,114,0,465,0,-223,0,244,0,1508,0,-25,0,418,0,-47,0,1210,0,517,0,2,-1,?
2017-03-21 14:21:47.312000,607,0,9,0,-579,0,-612,0,113,0,466,0,-231,0,235,0,1499,0,-31,0,403,0,-58,0,1193,0,516,0,2,-1,?
2017-03-21 14:21:47.320000,602,0,6,0,-573,0,-613,0,114,0,467,0,-236,0,219,0,1496,0,-39,0,396,0,-65,0,1192,0,523,0,2,-1,?
2017-03-21 14:21:47.328000,607,0,4,0,-570,0,-612,0,112,0,465,0,-232,0,228,0,1504,0,-37,0,400,0,-63,0,1197,0,520,0,2,-1,?
2017-03-21 14:21:47.335000,609,0,10,0,-575,0,-615,0,112,0,468,0,-225,0,250,0,1512,0,-26,0,410,0,-51,0,1205,0,519,0,2,-1,?
2017-03-21 14:21:47.343000,609,0,12,0,-575,0,-616,0,118,0,470,0,-225,0,246,0,1508,0,-24,0,416,0,-42,0,1209,0,527,0,2,-1,?
2017-03-21 14:21:47.351000,606,0,4,0,-582,0,-612,0,115,0,460,0,-232,0,235,0,1498,0,-31,0,400,0,-54,0,1193,0,520,0,2,-1,?
2017-03-21 14:21:47.358000,605,0,3,0,-581,0,-614,0,109,0,457,0,-246,0,229,0,1492,0,-38,0,389,0,-67,0,1184,0,513,0,2,-1,?
2017-03-21 14:21:47.366000,609,0,9,0,-577,0,-617,0,113,0,459,0,-237,0,236,0,1502,0,-29,0,399,0,-53,0,1191,0,516,0,2,-1,?
2017-03-21 14:21:47.374000,612,0,14,0,-579,0,-611,0,119,0,464,0,-223,0,243,0,1508,0,-14,0,416,0,-40,0,1197,0,525,0,2,-1,?
2017-03-21 14:21:47.382000,610,0,13,8,-576,0,-609,0,117,0,473,0,-236,0,233,0,1496,0,-22,0,410,0,-52,0,1196,0,529,0,2,-1,?
2017-03-21 14:21:47.391000,608,0,4,8,-578,0,-615,0,111,0,470,0,-241,0,230,0,1492,0,-40,0,387,0,-62,0,1188,0,525,16,2,-1,?
2017-03-21 14:21:47.398000,608,0,4,8,-579,24,-620,0,109,0,467,0,-234,0,237,0,1497,0,-35,0,396,0,-56,0,1191,0,525,16,2,-1,?
2017-03-21 14:21:47.405000,607,0,9,8,-574,24,-613,24,111,0,471,0,-224,0,241,0,1504,0,-18,0,415,0,-50,0,1200,0,524,16,2,-1,?
2017-03-21 14:21:47.413000,611,0,4,8,-571,24,-607,24,111,0,468,0,-219,0,242,0,1506,0,-14,0,414,0,-45,0,1201,0,524,16,2,-1,?
2017-03-21 14:21:47.421000,611,0,2,8,-574,24,-612,24,109,0,467,24,-237,0,231,0,1493,0,-31,0,402,0,-52,0,1195,0,526,16,2,-1,?
2017-03-21 14:21:47.429000,603,0,9,8,-577,24,-612,24,109,0,465,24,-245,8,225,0,1486,0,-42,0,385,0,-66,0,1181,0,526,16,2,-1,?
2017-03-21 14:21:47.438000,602,0,9,8,-573,24,-611,24,114,0,470,24,-233,8,232,16,1496,0,-35,0,394,0,-59,0,1188,0,523,16,2,-1,?
2017-03-21 14:21:47.445000,610,0,8,8,-572,24,-613,24,118,0,473,24,-222,8,242,16,1511,8,-21,0,420,0,-42,0,1210,0,522,16,2,-1,?
2017-03-21 14:21:47.453000,612,0,11,8,-573,24,-613,24,113,0,462,24,-222,8,245,16,1511,8,-18,16,415,0,-44,0,1203,0,525,16,2,-1,?
2017-03-21 14:21:47.461000,608,0,13,8,-571,24,-614,24,109,0,463,24,-244,8,230,16,1492,8,-38,16,393,24,-63,0,1182,0,523,16,2,-1,?
2017-03-21 14:21:47.469000,607,0,7,8,-576,24,-614,24,113,0,470,24,-253,8,227,16,1489,8,-42,16,387,24,-67,16,1179,0,519,16,2,-1,?
2017-03-21 14:21:47.476000,615,0,4,8,-576,24,-612,24,115,0,469,24,-234,8,243,16,1506,8,-19,16,409,24,-46,16,1197,8,524,16,2,-1,?
2017-03-21 14:21:47.484000,618,0,9,8,-570,24,-608,24,108,0,465,24,-216,8,248,16,1512,8,-12,8,422,24,-33,16,1203,8,526,16,2,-1,?
2017-03-21 14:21:47.491000,607,0,8,8,-573,24,-611,24,109,0,464,24,-227,8,238,16,1502,8,-28,8,401,0,-47,16,1187,8,518,16,2,-1,?
2017-03-21 14:21:47.500000,604,0,3,8,-573,24,-618,24,118,0,466,24,-251,8,218,16,1487,8,-42,8,391,0,-69,16,1181,8,518,16,2,-1,?
2017-03-21 14:21:47.508000,612,0,3,8,-569,24,-617,24,116,0,462,24,-242,8,223,16,1488,8,-33,8,406,0,-60,16,1187,8,525,16,2,-1,?
2017-03-21 14:21:47.515000,614,0,10,8,-570,24,-612,24,109,0,465,24,-219,8,248,16,1504,8,-13,8,421,0,-31,16,1201,8,525,16,2,-1,?
2017-03-21 14:21:47.524000,610,0,13,8,-572,24,-611,24,113,0,471,24,-227,8,251,16,1508,8,-17,8,417,0,-33,16,1206,8,521,16,2,-2,?
2017-03-21 14:21:47.530000,603,0,7,8,-577,24,-614,24,116,0,467,24,-239,8,238,16,1498,8,-38,8,397,0,-57,16,1190,8,520,16,2,-1,?
2017-03-21 14:21:47.539000,608,0,8,8,-577,24,-617,24,111,0,465,24,-244,8,221,16,1488,8,-42,8,396,0,-68,16,1187,8,527,16,2,-1,?
2017-03-21 14:21:47.546000,614,0,13,8,-570,24,-615,24,110,0,468,24,-236,8,227,16,1495,8,-28,8,408,0,-53,16,1198,8,525,16,2,-1,?
2017-03-21 14:21:47.555000,610,0,10,8,-566,24,-613,24,113,0,466,24,-221,8,247,16,1510,8,-22,8,412,0,-39,16,1201,8,516,16,2,-1,?
2017-03-21 14:21:47.563000,608,0,9,8,-573,24,-613,24,114,0,462,24,-232,8,241,16,1498,8,-29,8,406,0,-50,16,1196,8,520,16,2,-1,?
2017-03-21 14:21:47.571000,612,0,8,8,-582,24,-614,24,111,0,463,24,-246,8,228,16,1483,8,-35,8,396,0,-63,16,1188,8,524,16,2,-1,?
2017-03-21 14:21:47.578000,615,0,8,8,-579,24,-615,24,110,0,464,24,-245,8,227,16,1492,8,-27,8,404,0,-57,16,1194,8,525,16,2,-1,?
2017-03-21 14:21:47.585000,612,0,14,8,-580,24,-615,24,115,0,462,24,-229,8,237,16,1507,8,-14,8,415,0,-41,16,1204,8,526,16,2,-1,?
2017-03-21 14:21:47.593000,607,0,13,8,-581,24,-616,24,117,0,462,24,-219,8,250,16,1506,8,-19,8,411,0,-43,16,1202,8,524,16,2,-1,?
2017-03-21 14:21:47.601000,606,0,5,8,-574,24,-617,24,112,0,467,24,-236,8,238,16,1492,8,-39,8,396,0,-62,16,1194,8,524,16,2,-1,?
2017-03-21 14:21:47.610000,607,0,3,8,-582,24,-616,24,108,0,467,24,-241,8,227,16,1489,8,-41,8,389,0,-62,16,1186,8,520,16,2,-1,?
2017-03-21 14:21:47.616000,607,0,12,8,-584,24,-616,24,112,0,466,24,-227,8,238,16,1498,8,-25,8,404,0,-44,16,1196,8,519,16,2,-1,?
2017-03-21 14:21:47.625000,608,0,13,8,-573,24,-616,24,115,0,466,24,-226,8,247,16,1502,8,-14,8,418,0,-36,16,1210,8,522,16,2,-1,?
2017-03-21 14:21:47.633000,610,0,7,8,-576,24,-616,24,111,0,464,24,-230,8,242,16,1500,8,-24,8,409,0,-45,16,1200,8,520,16,2,-1,?
2017-03-21 14:21:47.641000,608,0,5,8,-582,24,-616,24,107,0,467,24,-236,8,228,16,1490,8,-40,8,400,0,-59,16,1188,8,521,16,2,-1,?
2017-03-21 14:21:47.648000,607,0,6,8,-579,24,-612,24,110,0,465,24,-235,8,232,16,1490,8,-33,8,403,0,-58,16,1189,8,523,16,2,-1,?
2017-03-21 14:21:47.656000,612,0,4,8,-577,24,-611,24,117,0,463,24,-222,8,247,16,1507,8,-21,8,410,0,-41,16,1198,8,525,16,2,-1,?
2017-03-21 14:21:47.663000,613,0,9,8,-577,24,-612,24,121,0,468,24,-224,8,248,16,1513,8,-21,8,411,0,-39,16,1202,8,523,16,2,-1,?
2017-03-21 14:21:47.671000,609,0,13,8,-574,24,-611,24,116,0,468,24,-238,8,236,16,1498,8,-25,8,401,0,-53,16,1192,8,518,16,2,-1,?
2017-03-21 14:21:47.680000,606,0,8,8,-574,24,-614,24,112,0,466,24,-247,8,220,16,1482,8,-36,8,398,0,-64,16,1188,8,517,16,2,-2,?
2017-03-21 14:21:47.688000,608,0,3,8,-581,24,-613,24,111,0,468,24,-235,8,233,16,1493,8,-38,8,399,0,-56,16,1194,8,516,16,2,-1,?
2017-03-21 14:21:47.696000,613,0,5,8,-576,24,-609,24,114,0,469,24,-222,8,253,16,1511,8,-23,8,407,0,-41,16,1201,8,521,16,2,-1,?
2017-03-21 14:21:47.704000,616,0,8,8,-567,24,-613,24,115,0,466,24,-231,8,241,16,1504,8,-22,8,416,0,-45,16,1203,8,524,16,2,-1,?
2017-03-21 14:21:47.710000,611,0,4,8,-579,24,-614,24,112,0,467,24,-237,8,231,16,1491,8,-35,8,400,0,-56,16,1194,8,518,16,2,-1,?
2017-03-21 14:21:47.718000,608,0,4,8,-577,24,-612,24,112,0,469,24,-234,8,237,16,1494,8,-32,8,398,0,-51,16,1192,8,521,16,2,-1,?
2017-03-21 14:21:47.727000,613,0,7,8,-568,24,-612,24,118,0,465,24,-225,8,246,16,1505,8,-15,8,412,0,-45,16,1198,8,522,16,2,-1,?
2017-03-21 14:21:47.735000,611,0,5,8,-574,24,-612,24,114,0,467,24,-224,8,245,16,1508,8,-14,8,411,0,-50,16,1199,8,521,16,2,-1,?
2017-03-21 14:21:47.743000,605,0,6,8,-575,24,-614,24,109,0,472,24,-240,8,224,16,1496,8,-37,8,401,0,-59,16,1191,8,525,16,2,-1,?
2017-03-21 14:21:47.750000,607,0,6,8,-577,24,-615,24,111,0,465,24,-238,8,218,16,1490,8,-50,8,392,0,-62,16,1182,8,523,16,2,-1,?
2017-03-21 14:21:47.757000,609,0,6,8,-578,24,-613,24,114,0,468,24,-229,8,235,16,1500,8,-36,8,397,0,-55,16,1193,8,522,16,2,-1,?
2017-03-21 14:21:47.766000,613,0,8,8,-576,24,-613,24,117,0,477,24,-224,8,250,16,1511,8,-19,8,409,0,-42,16,1207,8,527,16,2,-1,?
2017-03-21 14:21:47.774000,613,0,7,8,-580,24,-614,24,113,0,469,24,-225,8,248,16,1506,8,-22,8,414,0,-40,16,1203,8,527,16,2,-1,?
2017-03-21 14:21:47.781000,607,0,7,8,-578,24,-614,24,106,0,464,24,-241,8,230,16,1492,8,-38,8,400,0,-59,16,1190,8,521,16,2,-1,?
2017-03-21 14:21:47.789000,605,0,10,8,-574,24,-614,24,109,0,468,24,-244,8,227,16,1492,8,-39,8,386,0,-70,16,1181,8,520,16,2,-1,?
2017-03-21 14:21:47.796000,611,0,11,8,-574,24,-617,24,118,0,471,24,-231,8,236,16,1499,8,-23,8,405,0,-58,16,1190,8,526,16,2,-1,?
2017-03-21 14:21:47.804000,610,0,11,8,-579,24,-614,24,118,0,469,24,-227,8,239,16,1502,8,-17,8,423,0,-45,16,1197,8,527,16,2,-1,?
2017-03-21 14:21:47.812000,607,0,11,8,-581,24,-608,24,111,0,468,24,-233,8,240,16,1499,8,-28,8,409,0,-47,16,1189,8,523,16,2,-1,?
2017-03-21 14:21:47.820000,610,0,7,8,-576,24,-614,24,113,0,474,24,-246,8,225,16,1487,8,-47,8,395,0,-62,16,1189,8,522,16,2,-1,?
2017-03-21 14:21:47.828000,608,0,5,8,-577,24,-618,24,122,0,467,24,-243,8,224,16,1492,8,-37,8,397,0,-60,16,1194,8,521,16,2,-1,?
2017-03-21 14:21:47.835000,609,0,10,8,-576,24,-613,24,118,0,460,24,-229,8,245,16,1513,8,-12,8,414,0,-38,16,1200,8,523,16,2,-1,?
2017-03-21 14:21:47.844000,610,0,12,8,-573,24,-610,24,109,0,467,24,-227,8,250,16,1513,8,-14,8,419,0,-34,16,1204,8,524,16,2,-1,?
2017-03-21 14:21:47.851000,602,0,7,8,-574,24,-614,24,111,0,469,24,-233,8,238,16,1492,8,-35,8,394,0,-57,16,1194,8,522,16,2,-1,?
2017-03-21 14:21:47.860000,604,0,7,8,-572,24,-616,24,116,0,471,24,-248,8,221,16,1481,8,-48,8,388,0,-75,16,1185,8,525,16,2,-1,?
2017-03-21 14:21:47.867000,612,0,11,8,-573,24,-610,24,113,0,468,24,-243,8,228,16,1495,8,-35,8,406,0,-61,16,1185,8,527,16,2,-1,?
2017-03-21 14:21:47.876000,611,0,11,8,-578,24,-608,24,111,0,463,24,-221,8,246,16,1512,8,-16,8,419,0,-40,16,1195,8,522,16,2,-1,?
2017-03-21 14:21:47.882000,610,16,11,8,-573,24,-611,24,115,0,466,24,-229,8,235,16,1502,8,-25,8,414,0,-47,16,1198,8,522,16,2,-1,?
2017-03-21 14:21:47.890000,611,16,8,16,-570,24,-613,24,109,0,466,24,-241,8,228,16,1488,8,-44,8,397,0,-67,16,1184,8,523,16,2,-1,?
2017-03-21 14:21:47.899000,609,16,6,16,-574,24,-615,24,107,0,463,24,-234,8,232,16,1491,8,-39,8,401,0,-66,16,1186,8,527,24,2,-1,?
2017-03-21 14:21:47.906000,611,16,8,16,-576,0,-613,24,117,0,464,24,-223,8,236,16,1504,8,-20,8,414,0,-47,16,1198,8,526,24,2,-1,?
2017-03-21 14:21:47.914000,614,16,9,16,-576,0,-611,8,116,0,469,24,-227,8,242,16,1508,8,-17,8,411,0,-37,16,1201,8,525,24,2,-1,?
2017-03-21 14:21:47.922000,606,16,11,16,-573,0,-610,8,105,0,468,24,-244,8,234,16,1495,8,-34,8,403,0,-49,16,1198,8,526,24,2,-1,?
2017-03-21 14:21:47.930000,604,16,11,16,-578,0,-609,8,110,0,464,0,-242,8,223,16,1487,8,-44,8,393,0,-60,16,1188,8,521,24,2,-1,?
2017-03-21 14:21:47.938000,613,16,9,16,-579,0,-616,8,118,0,467,0,-231,24,227,16,1494,8,-30,8,398,0,-56,16,1190,8,521,24,2,-1,?
2017-03-21 14:21:47.945000,617,16,11,16,-576,0,-618,8,112,0,473,0,-226,24,243,8,1511,8,-14,8,414,0,-43,16,1201,8,524,24,2,-1,?
2017-03-21 14:21:47.954000,612,16,10,16,-577,0,-613,8,108,0,471,0,-223,24,247,8,1518,24,-22,8,410,0,-43,16,1198,8,519,24,2,-1,?
2017-03-21 14:21:47.961000,608,16,8,16,-579,0,-615,8,108,0,466,0,-238,24,230,8,1495,24,-37,16,397,0,-60,16,1192,8,515,24,2,-1,?
2017-03-21 14:21:47.968000,605,16,8,16,-582,0,-615,8,108,0,464,0,-243,24,229,8,1488,24,-34,16,398,0,-60,16,1194,8,517,24,2,-1,?
2017-03-21 14:21:47.976000,610,16,12,16,-574,0,-614,8,111,0,467,0,-228,24,247,8,1507,24,-23,16,415,0,-41,24,1201,8,521,24,2,-1,?
2017-03-21 14:21:47.985000,616,16,12,16,-572,0,-617,8,112,0,468,0,-222,24,249,8,1509,24,-23,16,418,0,-39,24,1205,0,522,24,2,-1,?
2017-03-21 14:21:47.993000,609,16,8,16,-579,0,-617,8,109,0,466,0,-231,24,237,8,1496,24,-30,16,401,0,-54,24,1198,0,523,24,2,-1,?
2017-03-21 14:21:48,606,16,7,16,-576,0,-615,8,111,0,469,0,-247,24,223,8,1487,24,-37,16,396,8,-62,24,1193,0,523,24,2,-1,?
2017-03-21 14:21:48.007000,610,16,8,16,-577,0,-610,8,116,0,468,0,-240,24,228,8,1493,24,-34,16,401,8,-52,24,1191,0,520,24,2,-1,?
2017-03-21 14:21:48.015000,613,16,9,16,-579,0,-612,8,113,0,467,0,-217,24,243,8,1509,24,-16,16,412,8,-39,24,1201,0,524,24,2,-1,?
2017-03-21 14:21:48.023000,613,16,10,16,-576,0,-612,8,107,0,472,0,-221,24,241,8,1505,24,-12,16,418,8,-42,24,1210,0,524,24,2,-1,?
2017-03-21 14:21:48.031000,612,16,10,16,-579,0,-610,8,106,0,472,0,-241,24,227,8,1490,24,-30,16,403,8,-58,24,1193,0,518,24,2,-1,?
2017-03-21 14:21:48.039000,612,16,7,16,-578,0,-613,8,112,0,466,0,-249,24,217,8,1489,24,-41,16,399,8,-59,24,1186,0,524,24,2,-1,?
2017-03-21 14:21:48.047000,613,16,5,16,-579,0,-616,8,113,0,463,0,-234,24,229,8,1501,24,-27,16,409,8,-47,24,1200,0,526,24,2,-1,?
2017-03-21 14:21:48.054000,615,16,5,16,-580,0,-612,8,113,0,470,0,-224,24,244,8,1508,24,-19,16,413,8,-46,24,1209,0,519,24,2,-1,?
2017-03-21 14:21:48.063000,611,16,12,16,-572,0,-611,8,114,0,475,0,-239,24,236,8,1504,24,-34,16,408,8,-57,24,1204,0,517,24,2,-1,?
2017-03-21 14:21:48.071000,603,16,10,16,-573,0,-618,8,110,0,463,0,-240,24,232,8,1495,24,-41,16,398,8,-58,24,1195,0,515,24,2,-1,?
2017-03-21 14:21:48.079000,608,16,6,16,-577,0,-619,8,111,0,463,0,-234,24,234,8,1493,24,-29,16,408,8,-46,24,1202,0,517,24,2,-1,?
2017-03-21 14:21:48.087000,619,16,9,16,-578,0,-611,8,115,0,475,0,-228,24,238,8,1505,24,-17,16,421,8,-40,24,1208,0,523,24,2,-1,?
2017-03-21 14:21:48.095000,613,16,10,16,-578,0,-610,8,110,0,468,0,-226,24,245,8,1510,24,-16,16,412,8,-51,24,1199,0,522,24,2,-1,?
2017-03-21 14:21:48.101000,602,16,7,16,-570,0,-620,8,109,0,460,0,-241,24,227,8,1497,24,-34,16,401,8,-67,24,1192,0,518,24,2,-1,?
2017-03-21 14:21:48.110000,603,16,6,16,-576,0,-620,8,116,0,469,0,-244,24,216,8,1493,24,-48,16,396,8,-65,24,1190,0,518,24,2,-1,?
2017-03-21 14:21:48.117000,610,16,11,16,-581,0,-609,8,113,0,477,0,-230,24,233,8,1500,24,-36,16,400,8,-52,24,1194,0,524,24,2,-1,?
2017-03-21 14:21:48.125000,612,16,14,16,-574,0,-612,8,111,0,468,0,-221,24,249,8,1508,24,-19,16,411,8,-45,24,1203,0,526,24,2,-1,?
2017-03-21 14:21:48.133000,611,16,11,16,-582,0,-619,8,113,0,461,0,-226,24,244,8,1508,24,-21,16,407,8,-45,24,1202,0,521,24,2,-1,?
2017-03-21 14:21:48.140000,608,16,8,16,-584,0,-618,8,111,0,468,0,-243,24,221,8,1492,24,-40,16,394,8,-62,24,1194,0,523,24,2,-1,?
2017-03-21 14:21:48.148000,606,16,6,16,-575,0,-612,8,113,0,468,0,-240,24,222,8,1489,24,-42,16,393,8,-70,24,1184,0,522,24,2,-1,?
2017-03-21 14:21:48.156000,610,16,9,16,-573,0,-610,8,114,0,471,0,-224,24,246,8,1506,24,-25,16,410,8,-49,24,1196,0,521,24,2,-1,?
2017-03-21 14:21:48.164000,618,16,11,16,-577,0,-609,8,106,0,477,0,-226,24,248,8,1508,24,-20,16,414,8,-34,24,1207,0,525,24,2,-1,?
2017-03-21 14:21:48.173000,611,16,10,16,-576,0,-608,8,108,0,468,0,-237,24,232,8,1493,24,-29,16,396,8,-49,24,1193,0,526,24,2,-1,?
2017-03-21 14:21:48.181000,602,16,7,16,-575,0,-615,8,118,0,468,0,-247,24,219,8,1483,24,-44,16,389,8,-68,24,1183,0,524,24,2,-1,?
2017-03-21 14:21:48.188000,610,16,9,16,-577,0,-615,8,117,0,472,0,-240,24,228,8,1494,24,-39,16,394,8,-62,24,1184,0,522,24,2,-1,?
2017-03-21 14:21:48.196000,616,16,13,16,-577,0,-610,8,109,0,468,0,-226,24,251,8,1509,24,-12,16,408,8,-44,24,1193,0,525,24,2,-1,?
2017-03-21 14:21:48.204000,610,16,11,16,-576,0,-609,8,110,0,466,0,-225,24,250,8,1507,24,-11,16,412,8,-43,24,1201,0,527,24,2,-1,?
2017-03-21 14:21:48.212000,607,16,7,16,-576,0,-612,8,114,0,464,0,-236,24,231,8,1498,24,-37,16,393,8,-58,24,1192,0,522,24,2,-1,?
2017-03-21 14:21:48.220000,610,16,7,16,-574,0,-617,8,114,0,465,0,-249,24,223,8,1494,24,-43,16,395,8,-67,24,1187,0,521,24,2,-1,?
2017-03-21 14:21:48.227000,609,16,8,16,-577,0,-615,8,113,0,470,0,-234,24,240,8,1502,24,-24,16,411,8,-53,24,1190,0,522,24,2,-1,?
2017-03-21 14:21:48.234000,612,16,5,16,-576,0,-610,8,111,0,472,0,-214,24,251,8,1513,24,-16,16,418,8,-35,24,1194,0,521,24,2,-1,?
2017-03-21 14:21:48.243000,614,16,11,16,-569,0,-608,8,110,0,467,0,-233,24,232,8,1501,24,-29,16,415,8,-46,24,1197,0,520,24,2,-1,?
2017-03-21 14:21:48.250000,609,16,15,16,-572,0,-611,8,114,0,464,0,-248,24,223,8,1487,24,-40,16,399,8,-65,24,1191,0,520,24,2,-1,?
2017-03-21 14:21:48.258000,609,16,10,16,-576,0,-619,8,117,0,464,0,-233,24,233,8,1496,24,-40,16,399,8,-62,24,1190,0,524,24,2,-1,?
2017-03-21 14:21:48.267000,616,16,9,16,-577,0,-619,8,115,0,463,0,-217,24,243,8,1510,24,-25,16,415,8,-49,24,1200,0,526,24,2,-1,?
2017-03-21 14:21:48.273000,615,16,12,16,-576,0,-615,8,108,0,463,0,-220,24,247,8,1508,24,-16,16,415,8,-47,24,1202,0,525,24,2,-1,?
2017-03-21 14:21:48.281000,607,16,8,16,-573,0,-614,8,106,0,463,0,-243,24,234,8,1490,24,-34,16,401,8,-60,24,1194,0,526,24,2,-1,?
2017-03-21 14:21:48.289000,606,16,5,16,-581,0,-612,8,106,0,462,0,-243,24,226,8,1484,24,-40,16,394,8,-64,24,1185,0,520,24,2,-1,?
2017-03-21 14:21:48.297000,611,16,14,16,-579,0,-611,8,109,0,465,0,-222,24,229,8,1498,24,-21,16,415,8,-47,24,1191,0,516,24,2,-1,?
2017-03-21 14:21:48.305000,615,16,17,16,-573,0,-613,8,109,0,467,0,-219,24,234,8,1509,24,-16,16,427,8,-39,24,1203,0,518,24,2,-1,?
2017-03-21 14:21:48.312000,611,16,7,16,-580,0,-615,8,104,0,467,0,-226,24,238,8,1503,24,-30,16,401,8,-54,24,1196,0,518,24,2,-1,?
2017-03-21 14:21:48.320000,608,16,9,16,-582,0,-610,8,108,0,470,0,-244,24,227,8,1488,24,-38,16,392,8,-66,24,1192,0,522,24,2,-1,?
2017-03-21 14:21:48.329000,613,16,13,16,-579,0,-610,8,111,0,465,0,-239,24,231,8,1494,24,-28,16,409,8,-54,24,1195,0,524,24,2,-1,?
2017-03-21 14:21:48.336000,615,16,5,16,-573,0,-620,8,113,0,465,0,-214,24,249,8,1512,24,-14,16,420,8,-39,24,1200,0,521,24,2,-1,?
2017-03-21 14:21:48.344000,612,16,4,16,-570,0,-620,8,115,0,471,0,-215,24,249,8,1511,24,-11,16,416,8,-45,24,1205,0,521,24,2,-1,?
2017-03-21 14:21:48.352000,607,16,8,16,-575,0,-610,8,113,0,468,0,-232,24,237,8,1498,24,-27,16,403,8,-60,24,1195,0,518,24,2,-1,?
2017-03-21 14:21:48.360000,604,16,11,16,-577,0,-612,8,108,0,466,0,-245,24,217,8,1486,24,-42,16,398,8,-68,24,1186,0,517,24,2,-1,?
2017-03-21 14:21:48.368000,607,16,11,16,-577,0,-616,8,108,0,467,0,-237,24,218,8,1493,24,-32,16,404,8,-57,24,1188,0,522,24,2,-1,?
2017-03-21 14:21:48.377000,616,16,11,16,-577,0,-616,8,113,0,468,0,-219,24,246,8,1513,24,-16,16,417,8,-42,24,1200,0,529,24,2,-1,?
2017-03-21 14:21:48.383000,615,0,13,16,-577,0,-615,8,113,0,472,0,-222,24,247,8,1509,24,-25,16,417,8,-47,24,1205,0,523,24,2,-1,?
2017-03-21 14:21:48.391000,604,0,9,8,-583,0,-611,8,113,0,469,0,-236,24,231,8,1489,24,-38,16,396,8,-60,24,1188,0,513,24,2,-1,?
2017-03-21 14:21:48.399000,606,0,8,8,-577,0,-616,8,115,0,465,0,-241,24,229,8,1491,24,-31,16,399,8,-57,24,1189,0,517,8,2,-1,?
2017-03-21 14:21:48.407000,616,0,12,8,-570,24,-615,8,115,0,467,0,-228,24,244,8,1508,24,-20,16,414,8,-41,24,1201,0,523,8,2,-1,?
2017-03-21 14:21:48.414000,616,0,12,8,-577,24,-611,24,111,0,471,0,-223,24,246,8,1508,24,-24,16,415,8,-44,24,1194,0,526,8,2,-1,?
2017-03-21 14:21:48.423000,610,0,7,8,-577,24,-615,24,113,8,469,0,-242,24,224,8,1493,24,-39,16,411,8,-62,24,1190,0,525,8,2,-1,?
2017-03-21 14:21:48.430000,605,0,2,8,-576,24,-620,24,113,8,463,24,-241,24,224,8,1492,24,-39,16,399,8,-64,24,1193,0,519,8,2,-1,?
2017-03-21 14:21:48.438000,608,0,4,8,-576,24,-619,24,110,8,463,24,-228,24,238,8,1498,24,-29,16,402,8,-48,24,1199,0,516,8,2,-1,?
2017-03-21 14:21:48.445000,613,0,9,8,-573,24,-617,24,114,8,469,24,-223,24,243,8,1500,24,-21,16,420,8,-37,24,1202,0,519,8,2,-1,?
2017-03-21 14:21:48.453000,613,0,12,8,-574,24,-612,24,116,8,470,24,-223,24,244,8,1503,16,-22,16,414,8,-45,24,1199,0,519,8,2,-1,?
2017-03-21 14:21:48.462000,607,0,11,8,-574,24,-612,24,111,8,470,24,-239,24,231,8,1496,16,-35,16,397,8,-59,24,1197,0,515,8,2,-1,?
2017-03-21 14:21:48.470000,603,0,6,8,-579,24,-617,24,114,8,468,24,-242,24,230,8,1494,16,-40,16,389,0,-60,24,1189,0,510,8,2,-1,?
2017-03-21 14:21:48.478000,609,0,6,8,-575,24,-616,24,121,8,469,24,-230,24,243,8,1502,16,-28,16,403,0,-47,8,1192,0,521,8,2,-1,?
2017-03-21 14:21:48.485000,615,0,13,8,-567,24,-612,24,117,8,473,24,-226,24,243,8,1506,16,-22,16,415,0,-39,8,1202,8,527,8,2,-1,?
2017-03-21 14:21:48.492000,609,0,10,8,-574,24,-615,24,112,8,468,24,-231,24,236,8,1501,16,-29,0,401,0,-47,8,1199,8,516,8,2,-1,?
2017-03-21 14:21:48.500000,605,0,3,8,-576,24,-617,24,113,8,468,24,-247,24,224,8,1489,16,-45,0,392,0,-68,8,1189,8,516,8,2,-1,?
2017-03-21 14:21:48.508000,608,0,0,8,-578,24,-609,24,109,8,466,24,-244,24,228,8,1494,16,-43,0,394,0,-67,16,1185,8,525,8,2,-1,?
2017-03-21 14:21:48.516000,611,0,6,8,-581,24,-607,24,106,8,464,24,-222,24,240,8,1508,16,-18,0,409,0,-41,16,1200,8,525,8,2,-1,?
2017-03-21 14:21:48.524000,613,0,14,8,-575,24,-614,24,115,8,469,24,-218,24,240,8,1504,16,-10,0,419,0,-35,16,1205,8,524,8,2,-1,?
2017-03-21 14:21:48.531000,610,0,9,8,-575,24,-610,24,116,8,468,24,-232,24,236,8,1493,16,-28,0,403,0,-53,16,1187,8,524,8,2,-1,?
2017-03-21 14:21:48.539000,609,0,5,8,-580,24,-610,24,112,8,472,24,-250,24,224,8,1484,16,-50,0,389,0,-68,16,1186,8,525,8,2,-1,?
2017-03-21 14:21:48.547000,612,0,10,8,-578,24,-615,24,114,8,473,24,-240,24,228,8,1497,16,-39,0,399,0,-57,16,1194,8,523,8,2,-1,?
2017-03-21 14:21:48.556000,612,0,13,8,-577,24,-614,24,112,8,471,24,-216,24,251,8,1513,16,-13,0,417,0,-38,16,1200,8,523,8,2,-1,?
2017-03-21 14:21:48.563000,612,0,8,8,-580,24,-611,24,108,8,474,24,-229,24,243,8,1500,16,-21,0,408,0,-47,16,1200,8,525,8,2,-1,?
2017-03-21 14:21:48.570000,613,0,4,8,-580,24,-609,24,108,8,469,24,-247,24,225,8,1489,16,-43,0,386,0,-63,16,1188,8,523,8,2,-1,?
2017-03-21 14:21:48.579000,608,0,6,8,-573,24,-613,24,116,8,468,24,-241,24,230,8,1498,16,-40,0,395,0,-62,16,1187,8,523,8,2,-1,?
2017-03-21 14:21:48.586000,608,0,8,8,-575,24,-615,24,123,8,466,24,-226,24,244,8,1509,16,-24,0,415,0,-44,16,1202,8,521,8,2,-1,?
2017-03-21 14:21:48.595000,614,0,5,8,-579,24,-614,24,116,8,462,24,-218,24,245,8,1507,16,-20,0,416,0,-35,16,1205,8,523,8,2,-1,?
2017-03-21 14:21:48.602000,615,0,6,8,-574,24,-612,24,108,8,466,24,-236,24,231,8,1494,16,-32,0,407,0,-48,16,1194,8,525,8,2,-1,?
2017-03-21 14:21:48.611000,610,0,7,8,-574,24,-614,24,108,8,467,24,-252,24,221,8,1486,16,-40,0,397,0,-64,16,1179,8,517,8,2,-1,?
2017-03-21 14:21:48.617000,609,0,6,8,-573,24,-615,24,109,8,462,24,-241,24,228,8,1492,16,-30,0,405,0,-58,16,1185,8,517,8,2,-1,?
2017-03-21 14:21:48.625000,617,0,11,8,-572,24,-611,24,115,8,464,24,-217,24,249,8,1507,16,-17,0,422,0,-38,16,1200,8,526,8,2,-1,?
2017-03-21 14:21:48.633000,617,0,14,8,-574,24,-611,24,121,8,468,24,-214,24,254,8,1511,16,-20,0,416,0,-36,16,1199,8,525,8,2,-1,?
2017-03-21 14:21:48.641000,610,0,11,8,-574,24,-615,24,117,8,467,24,-242,24,226,8,1493,16,-33,0,405,0,-57,16,1196,8,518,8,2,-1,?
2017-03-21 14:21:48.649000,603,0,6,8,-578,24,-614,24,111,8,462,24,-243,24,222,8,1485,16,-34,0,401,0,-61,16,1193,8,515,8,2,-1,?
2017-03-21 14:21:48.656000,608,0,6,8,-576,24,-617,24,108,8,464,24,-221,24,245,8,1501,16,-17,0,413,0,-38,16,1199,8,522,8,2,-1,?
2017-03-21 14:21:48.665000,616,0,9,8,-573,24,-621,24,110,8,469,24,-222,24,248,8,1507,16,-17,0,420,0,-33,16,1205,8,524,8,2,-1,?
2017-03-21 14:21:48.673000,609,0,9,8,-581,24,-615,24,110,8,466,24,-232,24,235,8,1497,16,-36,0,404,0,-53,16,1193,8,516,8,2,-1,?
2017-03-21 14:21:48.681000,600,0,12,8,-581,24,-616,24,110,8,459,24,-247,24,215,8,1485,16,-43,0,398,0,-62,16,1187,8,518,8,2,-1,?
2017-03-21 14:21:48.689000,608,0,12,8,-577,24,-617,24,112,8,458,24,-242,24,220,8,1489,16,-31,0,405,0,-51,16,1192,8,522,8,2,-1,?
2017-03-21 14:21:48.697000,617,0,8,8,-577,24,-616,24,114,8,465,24,-222,24,246,8,1508,16,-16,0,417,0,-37,16,1205,8,519,8,2,-1,?
2017-03-21 14:21:48.704000,610,0,8,8,-576,24,-613,24,111,8,468,24,-223,24,248,8,1508,16,-17,0,419,0,-40,16,1206,8,520,8,2,-1,?
2017-03-21 14:21:48.712000,606,0,7,8,-578,24,-612,24,108,8,462,24,-237,24,232,8,1493,16,-28,0,397,0,-58,16,1191,8,521,8,2,-1,?
2017-03-21 14:21:48.719000,613,0,3,8,-573,24,-615,24,110,8,464,24,-246,24,220,8,1485,16,-34,0,398,0,-59,16,1190,8,524,8,2,-1,?
2017-03-21 14:21:48.727000,615,0,3,8,-574,24,-612,24,112,8,471,24,-236,24,231,8,1498,16,-21,0,416,0,-43,16,1196,8,524,8,2,-1,?
2017-03-21 14:21:48.735000,613,0,12,8,-578,24,-609,24,109,8,472,24,-222,24,247,8,1514,16,-16,0,412,0,-42,16,1203,8,525,8,2,-1,?
2017-03-21 14:21:48.744000,614,0,12,8,-574,24,-614,24,106,8,468,24,-233,24,231,8,1503,16,-31,0,406,0,-58,16,1201,8,528,8,2,-1,?
2017-03-21 14:21:48.750000,612,0,2,8,-578,24,-616,24,106,8,463,24,-245,24,221,8,1488,16,-38,0,402,0,-60,16,1190,8,520,8,2,-1,?
2017-03-21 14:21:48.758000,610,0,3,8,-578,24,-614,24,109,8,466,24,-244,24,231,8,1492,16,-29,0,406,0,-46,16,1196,8,518,8,2,-1,?
2017-03-21 14:21:48.767000,617,0,9,8,-573,24,-614,24,115,8,471,24,-231,24,242,8,1502,16,-19,0,417,0,-38,16,1204,8,524,8,2,-1,?
2017-03-21 14:21:48.774000,620,0,6,8,-575,24,-617,24,114,8,469,24,-223,24,244,8,1503,16,-21,0,418,0,-46,16,1201,8,523,8,2,-1,?
2017-03-21 14:21:48.782000,615,0,6,8,-572,24,-619,24,107,8,467,24,-242,24,228,8,1494,16,-37,0,406,0,-59,16,1197,8,522,8,2,-1,?
2017-03-21 14:21:48.789000,609,0,8,8,-574,24,-614,24,108,8,464,24,-244,24,224,8,1495,16,-45,0,392,0,-60,16,1193,8,525,8,2,-1,?
2017-03-21 14:21:48.797000,613,0,5,8,-575,24,-611,24,116,8,465,24,-228,24,238,8,1503,16,-32,0,404,0,-48,16,1200,8,532,8,2,-1,?
2017-03-21 14:21:48.805000,618,0,7,8,-569,24,-617,24,117,8,468,24,-225,24,249,8,1507,16,-17,0,419,0,-37,16,1208,8,526,8,2,-1,?
2017-03-21 14:21:48.813000,616,0,7,8,-571,24,-618,24,108,8,467,24,-232,24,244,8,1503,16,-20,0,409,0,-41,16,1197,8,517,8,2,-1,?
2017-03-21 14:21:48.822000,609,0,3,8,-577,24,-612,24,109,8,467,24,-246,24,225,8,1494,16,-44,0,395,0,-58,16,1192,8,521,8,2,-1,?
2017-03-21 14:21:48.829000,606,0,5,8,-577,24,-613,24,116,8,469,24,-245,24,230,8,1495,16,-48,0,394,0,-59,16,1193,8,524,8,2,-1,?
2017-03-21 14:21:48.836000,610,0,13,8,-569,24,-621,24,113,8,470,24,-233,24,245,8,1502,16,-22,0,409,0,-45,16,1196,8,524,8,2,-1,?
2017-03-21 14:21:48.844000,611,0,12,8,-569,24,-617,24,112,8,467,24,-227,24,243,8,1507,16,-12,0,419,0,-44,16,1202,8,525,8,2,-1,?
2017-03-21 14:21:48.852000,611,0,7,8,-575,24,-611,24,116,8,466,24,-232,24,242,8,1504,16,-28,0,405,0,-54,16,1194,8,525,8,2,-1,?
2017-03-21 14:21:48.860000,609,0,10,8,-572,24,-615,24,117,8,472,24,-247,24,228,8,1490,16,-45,0,387,0,-70,16,1186,8,522,8,2,-1,?
2017-03-21 14:21:48.868000,606,0,10,8,-576,24,-612,24,116,8,471,24,-241,24,227,8,1493,16,-38,0,385,0,-66,16,1185,8,515,8,2,-1,?
2017-03-21 14:21:48.876000,611,0,4,8,-581,24,-609,24,116,8,474,24,-219,24,245,8,1511,16,-19,0,405,0,-37,16,1196,8,517,8,2,-1,?
2017-03-21 14:21:48.884000,617,0,4,8,-576,24,-612,24,117,8,479,24,-222,24,242,8,1511,16,-20,0,412,0,-32,16,1206,8,527,8,2,-1,?
2017-03-21 14:21:48.892000,609,8,4,8,-577,24,-610,24,114,8,469,24,-239,24,233,8,1495,16,-34,0,392,0,-54,16,1190,8,526,8,2,-1,?
2017-03-21 14:21:48.900000,603,8,7,0,-577,24,-610,24,112,8,468,24,-243,24,232,8,1489,16,-39,0,395,0,-63,16,1183,8,522,8,2,-1,?
2017-03-21 14:21:48.908000,607,8,8,0,-575,24,-613,24,113,8,471,24,-226,24,235,8,1507,16,-25,0,410,0,-46,16,1201,8,525,24,2,-1,?
2017-03-21 14:21:48.916000,612,8,6,0,-574,16,-612,24,108,8,466,24,-215,24,244,8,1515,16,-14,0,416,0,-37,16,1204,8,525,24,2,-1,?
2017-03-21 14:21:48.923000,610,8,7,0,-573,16,-613,0,105,8,468,24,-234,24,239,8,1492,16,-28,0,411,0,-53,16,1188,8,522,24,2,-1,?
2017-03-21 14:21:48.931000,607,8,6,0,-577,16,-614,0,113,8,469,24,-242,24,231,8,1483,16,-44,0,392,0,-64,16,1179,8,521,24,2,-1,?
2017-03-21 14:21:48.939000,610,8,5,0,-575,16,-615,0,117,8,466,16,-236,24,232,8,1497,16,-38,0,396,0,-57,16,1192,8,527,24,2,-1,?
2017-03-21 14:21:48.947000,614,8,8,0,-571,16,-613,0,113,8,466,16,-226,16,250,8,1508,16,-20,0,420,0,-40,16,1202,8,524,24,2,-1,?
2017-03-21 14:21:48.955000,611,8,9,0,-573,16,-615,0,113,8,465,16,-216,16,254,8,1512,16,-17,0,421,0,-33,16,1202,8,519,24,2,-1,?
2017-03-21 14:21:48.962000,602,8,7,0,-574,16,-617,0,115,8,465,16,-238,16,226,8,1496,8,-34,0,404,0,-49,16,1194,8,531,24,2,-1,?
2017-03-21 14:21:48.969000,603,8,4,0,-572,16,-613,0,113,8,465,16,-253,16,216,8,1483,8,-36,8,394,0,-67,16,1183,8,531,24,2,-1,?
2017-03-21 14:21:48.977000,614,8,7,0,-569,16,-614,0,113,8,469,16,-237,16,234,8,1497,8,-17,8,407,8,-59,16,1195,8,523,24,2,-1,?
2017-03-21 14:21:48.985000,614,8,11,0,-573,16,-618,0,116,8,468,16,-222,16,247,8,1512,8,-15,8,415,8,-45,0,1207,8,525,24,2,-1,?
2017-03-21 14:21:48.994000,606,8,11,0,-579,16,-615,0,116,8,463,16,-229,16,241,8,1507,8,-28,8,402,8,-50,0,1194,24,526,24,2,-1,?
2017-03-21 14:21:49.001000,605,8,5,0,-575,16,-616,0,116,8,462,16,-252,16,221,8,1487,8,-39,16,403,8,-65,0,1189,24,521,24,2,-1,?
2017-03-21 14:21:49.009000,605,8,2,0,-579,16,-620,0,116,8,463,16,-243,16,224,8,1487,8,-36,16,406,24,-62,0,1195,24,517,24,2,-1,?
2017-03-21 14:21:49.017000,608,8,5,0,-580,16,-618,0,112,8,467,16,-219,16,245,8,1503,8,-22,16,413,24,-41,0,1204,24,520,24,2,-1,?
2017-03-21 14:21:49.025000,617,8,13,0,-576,16,-610,0,109,8,471,16,-223,16,247,8,1505,8,-20,16,422,24,-38,0,1208,24,524,24,2,-1,?
2017-03-21 14:21:49.032000,612,8,11,0,-579,16,-609,0,112,8,467,16,-239,16,237,8,1498,8,-34,16,402,24,-56,0,1194,24,519,24,2,-1,?
2017-03-21 14:21:49.040000,606,8,3,0,-576,16,-621,0,114,8,462,16,-250,16,227,8,1489,8,-44,16,390,24,-67,0,1186,24,517,24,2,-1,?
2017-03-21 14:21:49.048000,615,8,6,0,-577,16,-618,0,108,8,463,16,-237,16,233,8,1490,8,-32,16,407,24,-54,0,1192,24,523,24,2,-1,?
2017-03-21 14:21:49.056000,619,8,11,0,-581,16,-609,0,108,8,469,16,-219,16,251,8,1507,8,-19,16,422,24,-41,0,1200,24,530,24,2,-1,?
2017-03-21 14:21:49.064000,610,8,5,0,-575,16,-613,0,118,8,475,16,-226,16,244,8,1510,8,-26,16,418,24,-47,0,1203,24,526,24,2,-1,?
2017-03-21 14:21:49.071000,605,8,1,0,-577,16,-616,0,118,8,470,16,-236,16,230,8,1495,8,-40,16,398,24,-58,0,1192,24,515,24,2,-1,?
2017-03-21 14:21:49.079000,612,8,9,0,-584,16,-615,0,110,8,469,16,-239,16,227,8,1488,8,-39,16,401,24,-52,0,1190,24,519,24,2,-1,?
2017-03-21 14:21:49.088000,614,8,11,0,-582,16,-616,0,110,8,470,16,-233,16,236,8,1503,8,-23,16,413,24,-41,0,1199,24,525,24,2,-1,?
2017-03-21 14:21:49.095000,611,8,6,0,-575,16,-614,0,112,8,468,16,-225,16,245,8,1512,8,-19,16,408,24,-41,0,1200,24,522,24,2,-1,?
2017-03-21 14:21:49.103000,612,8,9,0,-571,16,-612,0,111,8,466,16,-235,16,231,8,1494,8,-36,16,401,24,-55,0,1195,24,517,24,2,-1,?
2017-03-21 14:21:49.111000,614,8,11,0,-582,16,-617,0,108,8,462,16,-244,16,227,8,1487,8,-37,16,396,24,-63,0,1190,24,517,24,2,-1,?
2017-03-21 14:21:49.119000,612,8,10,0,-582,16,-619,0,107,8,464,16,-244,16,236,8,1499,8,-21,16,404,24,-53,0,1202,24,527,24,2,-1,?
2017-03-21 14:21:49.127000,612,8,11,0,-570,16,-614,0,112,8,472,16,-229,16,244,8,1506,8,-14,16,420,24,-40,0,1210,24,529,24,2,-1,?
2017-03-21 14:21:49.134000,613,8,11,0,-575,16,-613,0,115,8,471,16,-221,16,245,8,1505,8,-20,16,417,24,-45,0,1201,24,524,24,2,-1,?
2017-03-21 14:21:49.141000,611,8,8,0,-585,16,-613,0,110,8,464,16,-245,16,230,8,1493,8,-40,16,402,24,-61,0,1193,24,524,24,2,-1,?
2017-03-21 14:21:49.149000,608,8,2,0,-585,16,-609,0,108,8,460,16,-245,16,227,8,1494,8,-45,16,393,24,-64,0,1193,24,519,24,2,-1,?
2017-03-21 14:21:49.157000,612,8,4,0,-578,16,-611,0,116,8,466,16,-220,16,240,8,1510,8,-29,16,407,24,-49,0,1207,24,521,24,2,-1,?
2017-03-21 14:21:49.166000,616,8,10,0,-574,16,-611,0,119,8,469,16,-224,16,238,8,1510,8,-20,16,417,24,-41,0,1211,24,527,24,2,-1,?
2017-03-21 14:21:49.173000,607,8,3,0,-579,16,-607,0,112,8,465,16,-238,16,229,8,1495,8,-28,16,400,24,-52,0,1194,24,524,24,2,-1,?
2017-03-21 14:21:49.181000,601,8,3,0,-577,16,-610,0,110,8,465,16,-245,16,218,8,1489,8,-41,16,391,24,-70,0,1191,24,518,24,2,-1,?
2017-03-21 14:21:49.189000,606,8,12,0,-576,16,-608,0,113,8,469,16,-237,16,228,8,1499,8,-40,16,395,24,-63,0,1193,24,518,24,2,-1,?
2017-03-21 14:21:49.197000,610,8,10,0,-574,16,-605,0,109,8,473,16,-228,16,249,8,1509,8,-28,16,405,24,-43,0,1197,24,525,24,2,-1,?
2017-03-21 14:21:49.205000,612,8,6,0,-571,16,-612,0,106,8,477,16,-228,16,245,8,1507,8,-25,16,417,24,-40,0,1207,24,528,24,2,-1,?
2017-03-21 14:21:49.213000,614,8,9,0,-579,16,-613,0,111,8,468,16,-234,16,232,8,1497,8,-35,16,407,24,-53,0,1194,24,521,24,2,-1,?
2017-03-21 14:21:49.221000,612,8,10,0,-575,16,-609,0,113,8,468,16,-248,16,224,8,1487,8,-41,16,393,24,-62,0,1182,24,518,24,2,-1,?
2017-03-21 14:21:49.228000,613,8,5,0,-571,16,-613,0,111,8,474,16,-239,16,235,8,1500,8,-33,16,397,24,-55,0,1192,24,521,24,2,-1,?
2017-03-21 14:21:49.236000,618,8,2,0,-578,16,-618,0,112,8,470,16,-218,16,246,8,1515,8,-20,16,415,24,-46,0,1205,24,523,24,2,-1,?
2017-03-21 14:21:49.244000,613,8,8,0,-579,16,-613,0,113,8,469,16,-230,16,233,8,1503,8,-24,16,411,24,-53,0,1195,24,524,24,2,-1,?
2017-03-21 14:21:49.252000,606,8,6,0,-573,16,-607,0,109,8,467,16,-244,16,227,8,1488,8,-38,16,387,24,-66,0,1177,24,522,24,2,-1,?
2017-03-21 14:21:49.260000,609,8,2,0,-572,16,-613,0,106,8,470,16,-241,16,236,8,1496,8,-38,16,395,24,-66,0,1190,24,522,24,2,-1,?
2017-03-21 14:21:49.267000,615,8,6,0,-579,16,-617,0,113,8,470,16,-229,16,246,8,1510,8,-25,16,415,24,-48,0,1205,24,523,24,2,-1,?
2017-03-21 14:21:49.275000,607,8,13,0,-578,16,-610,0,113,8,466,16,-218,16,246,8,1510,8,-20,16,416,24,-35,0,1198,24,523,24,2,-1,?
2017-03-21 14:21:49.283000,602,8,11,0,-575,16,-610,0,109,8,470,16,-232,16,226,8,1494,8,-36,16,401,24,-51,0,1190,24,523,24,2,-1,?
2017-03-21 14:21:49.291000,608,8,4,0,-579,16,-614,0,111,8,464,16,-244,16,219,8,1488,8,-46,16,387,24,-71,0,1182,24,521,24,2,-1,?
2017-03-21 14:21:49.299000,611,8,7,0,-575,16,-612,0,120,8,463,16,-239,16,230,8,1496,8,-31,16,405,24,-61,0,1188,24,524,24,2,-1,?
2017-03-21 14:21:49.307000,611,8,12,0,-573,16,-610,0,122,8,470,16,-223,16,244,8,1507,8,-15,16,417,24,-37,0,1204,24,526,24,2,-1,?
2017-03-21 14:21:49.314000,612,8,8,0,-579,16,-613,0,111,8,468,16,-214,16,247,8,1512,8,-25,16,403,24,-38,0,1204,24,527,24,2,-1,?
2017-03-21 14:21:49.322000,608,8,8,0,-574,16,-614,0,108,8,467,16,-240,16,224,8,1496,8,-45,16,394,24,-63,0,1194,24,527,24,2,-1,?
2017-03-21 14:21:49.330000,605,8,12,0,-573,16,-609,0,109,8,467,16,-248,16,221,8,1487,8,-39,16,399,24,-66,0,1189,24,520,24,2,-1,?
2017-03-21 14:21:49.338000,611,8,9,0,-576,16,-612,0,108,8,464,16,-228,16,245,8,1499,8,-20,16,415,24,-38,0,1202,24,519,24,2,-1,?
2017-03-21 14:21:49.346000,615,8,6,0,-578,16,-619,0,111,8,465,16,-225,16,251,8,1505,8,-20,16,422,24,-31,0,1208,24,523,24,2,-1,?
2017-03-21 14:21:49.352000,610,8,8,0,-581,16,-616,0,115,8,465,16,-237,16,236,8,1494,8,-31,16,402,24,-52,0,1192,24,520,24,2,-1,?
2017-03-21 14:21:49.361000,608,8,13,0,-575,16,-614,0,113,8,463,16,-251,16,212,8,1480,8,-40,16,395,24,-65,0,1187,24,522,24,2,-1,?
2017-03-21 14:21:49.369000,608,8,9,0,-573,16,-616,0,112,8,463,16,-241,16,219,8,1487,8,-34,16,408,24,-54,0,1195,24,523,24,2,-1,?
2017-03-21 14:21:49.377000,610,8,6,0,-575,16,-615,0,115,8,466,16,-220,16,247,8,1507,8,-19,16,421,24,-39,0,1205,24,521,24,2,-1,?
2017-03-21 14:21:49.385000,615,8,12,0,-571,16,-612,0,116,8,469,16,-221,16,247,8,1504,8,-19,16,418,24,-44,0,1207,24,523,24,2,-1,?
2017-03-21 14:21:49.393000,611,16,10,0,-572,16,-612,0,114,8,466,16,-232,16,232,8,1493,8,-30,16,395,24,-57,0,1192,24,521,24,2,-1,?
2017-03-21 14:21:49.400000,608,16,7,24,-575,16,-615,0,116,8,463,16,-246,16,221,8,1488,8,-35,16,394,24,-63,0,1184,24,525,24,2,-1,?
2017-03-21 14:21:49.408000,612,16,10,24,-579,16,-614,0,116,8,461,16,-239,16,231,8,1493,8,-25,16,412,24,-50,0,1192,24,524,8,2,-1,?
2017-03-21 14:21:49.415000,610,16,10,24,-576,8,-616,0,112,8,461,16,-224,16,252,8,1507,8,-19,16,414,24,-36,0,1201,24,517,8,2,-1,?
2017-03-21 14:21:49.424000,610,16,12,24,-569,8,-617,0,111,8,464,16,-233,16,242,8,1505,8,-32,16,408,24,-48,0,1196,24,521,8,2,-1,?
2017-03-21 14:21:49.432000,610,16,10,24,-580,8,-615,0,110,16,462,16,-243,16,227,8,1495,8,-37,16,401,24,-62,0,1186,24,521,8,2,-1,?
2017-03-21 14:21:49.439000,611,16,8,24,-582,8,-617,0,108,16,464,0,-241,16,229,8,1493,8,-28,16,408,24,-54,0,1198,24,520,8,2,-1,?
2017-03-21 14:21:49.447000,615,16,9,24,-570,8,-616,0,112,16,468,0,-231,0,238,8,1505,8,-20,16,416,24,-35,0,1208,24,520,8,2,-1,?
2017-03-21 14:21:49.454000,615,16,7,24,-572,8,-612,0,114,16,466,0,-222,0,243,16,1514,8,-21,16,409,24,-39,0,1199,24,521,8,2,-1,?
2017-03-21 14:21:49.463000,612,16,8,24,-581,8,-617,0,110,16,465,0,-236,0,229,16,1498,8,-38,16,399,24,-62,0,1194,24,520,8,2,-1,?
2017-03-21 14:21:49.470000,607,16,10,24,-583,8,-616,0,104,16,465,0,-242,0,224,16,1489,8,-45,8,394,24,-63,0,1191,24,518,8,2,-1,?
2017-03-21 14:21:49.478000,606,16,8,24,-573,8,-611,0,108,16,470,0,-228,0,236,16,1501,8,-31,8,406,16,-44,0,1199,24,525,8,2,-1,?
2017-03-21 14:21:49.486000,611,16,5,24,-570,8,-612,0,118,16,471,0,-220,0,247,16,1508,8,-23,8,412,16,-40,24,1206,24,529,8,2,-1,?
2017-03-21 14:21:49.493000,612,16,9,24,-578,8,-614,0,115,16,465,0,-227,0,246,16,1499,8,-28,8,405,16,-51,24,1195,8,520,8,2,-1,?
2017-03-21 14:21:49.501000,608,16,11,24,-577,8,-616,0,111,16,468,0,-248,0,226,16,1489,8,-40,0,400,16,-60,24,1192,8,513,8,2,-1,?
2017-03-21 14:21:49.510000,608,16,5,24,-576,8,-615,0,114,16,471,0,-245,0,229,16,1494,8,-44,0,393,24,-56,24,1193,8,512,8,2,-1,?
2017-03-21 14:21:49.517000,614,16,7,24,-573,8,-615,0,117,16,469,0,-224,0,247,16,1505,8,-32,0,402,24,-46,8,1194,8,522,8,2,-1,?
2017-03-21 14:21:49.524000,615,16,15,24,-569,8,-612,0,116,16,467,0,-225,0,245,16,1507,8,-22,0,416,24,-47,8,1197,8,528,8,2,-1,?
2017-03-21 14:21:49.532000,609,16,11,24,-577,8,-610,0,112,16,465,0,-240,0,234,16,1498,8,-27,0,403,24,-57,8,1194,8,523,8,2,-1,?
2017-03-21 14:21:49.540000,608,16,7,24,-575,8,-616,0,112,16,467,0,-252,0,223,16,1487,8,-42,0,389,24,-62,8,1193,8,524,8,2,-1,?
2017-03-21 14:21:49.548000,611,16,6,24,-573,8,-613,0,114,16,468,0,-240,0,231,16,1497,8,-41,0,398,24,-54,8,1192,8,523,8,2,-1,?
2017-03-21 14:21:49.556000,615,16,9,24,-576,8,-606,0,114,16,468,0,-224,0,248,16,1512,8,-21,0,414,24,-41,8,1202,8,522,8,2,-1,?
2017-03-21 14:21:49.564000,616,16,13,24,-577,8,-609,0,113,16,468,0,-229,0,239,16,1505,8,-19,0,409,24,-45,8,1209,8,523,8,2,-1,?
2017-03-21 14:21:49.571000,607,16,8,24,-583,8,-611,0,111,16,458,0,-236,0,231,16,1491,8,-38,0,391,24,-56,8,1194,8,520,8,2,-1,?
2017-03-21 14:21:49.579000,603,16,2,24,-581,8,-612,0,110,16,465,0,-239,0,235,16,1489,8,-44,0,395,24,-56,8,1189,8,522,8,2,-1,?
2017-03-21 14:21:49.587000,605,16,7,24,-576,8,-615,0,116,16,474,0,-231,0,240,16,1506,8,-29,0,406,24,-45,8,1204,8,525,8,2,-1,?
2017-03-21 14:21:49.595000,608,16,11,24,-577,8,-611,0,120,16,468,0,-223,0,237,16,1510,8,-16,0,411,24,-40,8,1207,8,521,8,2,-1,?
2017-03-21 14:21:49.603000,612,16,9,24,-580,8,-612,0,117,16,469,0,-232,0,224,16,1491,8,-31,0,408,24,-52,8,1197,8,520,8,2,-1,?
2017-03-21 14:21:49.611000,614,16,9,24,-580,8,-619,0,114,16,469,0,-237,0,224,16,1491,8,-48,0,390,24,-65,8,1186,8,527,8,2,-1,?
2017-03-21 14:21:49.618000,612,16,12,24,-577,8,-620,0,114,16,468,0,-237,0,227,16,1505,8,-38,0,396,24,-61,8,1192,8,530,8,2,-1,?
2017-03-21 14:21:49.627000,613,16,10,24,-579,8,-609,0,118,16,470,0,-226,0,241,16,1510,8,-16,0,418,24,-43,8,1203,8,523,8,2,-1,?
2017-03-21 14:21:49.635000,613,16,6,24,-576,8,-609,0,116,16,468,0,-214,0,255,16,1513,8,-15,0,414,24,-35,8,1200,8,521,8,2,-1,?
2017-03-21 14:21:49.643000,605,16,11,24,-568,8,-620,0,111,16,466,0,-236,0,230,16,1501,8,-38,0,401,24,-52,8,1192,8,527,8,2,-1,?
2017-03-21 14:21:49.651000,604,16,12,24,-575,8,-618,0,114,16,459,0,-250,0,216,16,1487,8,-41,0,394,24,-66,8,1182,8,525,8,2,-1,?
2017-03-21 14:21:49.658000,614,16,10,24,-579,8,-611,0,115,16,463,0,-237,0,237,16,1495,8,-22,0,406,24,-50,8,1193,8,523,8,2,-1,?
2017-03-21 14:21:49.666000,618,16,12,24,-573,8,-609,0,114,16,470,0,-224,0,248,16,1508,8,-17,0,415,24,-36,8,1207,8,525,8,2,-1,?
2017-03-21 14:21:49.674000,608,16,8,24,-576,8,-610,0,114,16,466,0,-222,0,244,16,1506,8,-31,0,409,24,-49,8,1199,8,525,8,2,-1,?
2017-03-21 14:21:49.682000,604,16,6,24,-572,8,-614,0,112,16,467,0,-243,0,224,16,1491,8,-43,0,404,24,-64,8,1191,8,526,8,2,-1,?
2017-03-21 14:21:49.689000,609,16,9,24,-573,8,-612,0,107,16,469,0,-244,0,220,16,1492,8,-32,0,401,24,-55,8,1189,8,524,8,2,-1,?
2017-03-21 14:21:49.698000,615,16,7,24,-577,8,-615,0,107,16,466,0,-221,0,244,16,1507,8,-15,0,414,24,-38,8,1197,8,524,8,2,-1,?
2017-03-21 14:21:49.705000,616,16,3,24,-577,8,-618,0,113,16,466,0,-216,0,255,16,1510,8,-19,0,421,24,-41,8,1203,8,527,8,2,-1,?
2017-03-21 14:21:49.713000,612,16,3,24,-578,8,-616,0,114,16,471,0,-227,0,241,16,1503,8,-35,0,398,24,-56,8,1192,8,521,8,2,-1,?
2017-03-21 14:21:49.721000,612,16,5,24,-576,8,-614,0,113,16,468,0,-246,0,219,16,1489,8,-42,0,390,24,-65,8,1189,8,521,8,2,-1,?
2017-03-21 14:21:49.729000,608,16,9,24,-577,8,-612,0,113,16,463,0,-242,0,226,16,1489,8,-32,0,408,24,-54,8,1195,8,526,8,2,-1,?
2017-03-21 14:21:49.737000,606,16,11,24,-578,8,-612,0,115,16,469,0,-219,0,249,16,1508,8,-20,0,419,24,-35,8,1203,8,526,8,2,-1,?
2017-03-21 14:21:49.744000,612,16,13,24,-577,8,-613,0,116,16,471,0,-225,0,243,16,1503,8,-26,0,411,24,-42,8,1203,8,521,8,2,-1,?
2017-03-21 14:21:49.752000,611,16,10,24,-577,8,-614,0,108,16,461,0,-243,0,226,16,1489,8,-34,0,399,24,-58,8,1189,8,523,8,2,-1,?
2017-03-21 14:21:49.760000,608,16,7,24,-572,8,-613,0,109,16,466,0,-245,0,223,16,1492,8,-31,0,406,24,-55,8,1187,8,529,8,2,-1,?
2017-03-21 14:21:49.768000,610,16,10,24,-576,8,-610,0,114,16,474,0,-232,0,237,16,1502,8,-22,0,415,24,-43,8,1200,8,522,8,2,-1,?
2017-03-21 14:21:49.776000,612,16,11,24,-579,8,-614,0,110,16,468,0,-223,0,251,16,1506,8,-17,0,414,24,-45,8,1205,8,522,8,2,-1,?
2017-03-21 14:21:49.784000,609,16,12,24,-574,8,-618,0,111,16,468,0,-236,0,236,16,1497,8,-35,0,403,24,-62,8,1195,8,523,8,2,-1,?
2017-03-21 14:21:49.791000,611,16,8,24,-575,8,-614,0,113,16,470,0,-246,0,224,16,1491,8,-45,0,392,24,-65,8,1184,8,516,8,2,-1,?
2017-03-21 14:21:49.799000,616,16,6,24,-576,8,-614,0,108,16,466,0,-239,0,230,16,1490,8,-26,0,407,24,-48,8,1198,8,526,8,2,-1,?
2017-03-21 14:21:49.806000,616,16,13,24,-578,8,-614,0,107,16,464,0,-225,0,243,16,1502,8,-15,0,415,24,-38,8,1209,8,530,8,2,-1,?
2017-03-21 14:21:49.814000,610,16,14,24,-578,8,-612,0,109,16,466,0,-225,0,246,16,1512,8,-22,0,404,24,-47,8,1200,8,521,8,2,-1,?
2017-03-21 14:21:49.823000,605,16,6,24,-576,8,-617,0,112,16,467,0,-247,0,231,16,1492,8,-33,0,398,24,-61,8,1189,8,521,8,2,-1,?
2017-03-21 14:21:49.830000,609,16,4,24,-580,8,-616,0,110,16,466,0,-245,0,231,16,1485,8,-37,0,395,24,-61,8,1187,8,520,8,2,-1,?
2017-03-21 14:21:49.838000,613,16,10,24,-576,8,-613,0,110,16,467,0,-225,0,242,16,1511,8,-25,0,408,24,-45,8,1201,8,522,8,2,-1,?
2017-03-21 14:21:49.846000,610,16,12,24,-571,8,-615,0,113,16,471,0,-225,0,240,16,1517,8,-18,0,418,24,-41,8,1205,8,525,8,2,-1,?
2017-03-21 14:21:49.853000,611,16,10,24,-579,8,-612,0,113,16,470,0,-233,0,232,16,1495,8,-30,0,401,24,-53,8,1186,8,519,8,2,-1,?
2017-03-21 14:21:49.862000,614,16,10,24,-574,8,-614,0,108,16,469,0,-245,0,221,16,1487,8,-44,0,395,24,-63,8,1186,8,517,8,2,-1,?
2017-03-21 14:21:49.870000,609,16,5,24,-567,8,-617,0,108,16,465,0,-242,0,231,16,1503,8,-35,0,405,24,-58,8,1198,8,520,8,2,-1,?
2017-03-21 14:21:49.877000,608,16,6,24,-571,8,-616,0,113,16,466,0,-226,0,251,16,1512,8,-20,0,407,24,-43,8,1199,8,523,8,2,-1,?
2017-03-21 14:21:49.885000,615,16,15,24,-572,8,-615,0,116,16,474,0,-224,0,245,16,1505,8,-18,0,412,24,-35,8,1202,8,525,8,2,-1,?
2017-03-21 14:21:49.893000,610,16,14,24,-582,8,-614,0,112,16,463,0,-231,0,233,16,1494,8,-28,0,402,24,-48,8,1190,8,519,8,2,-1,?
2017-03-21 14:21:49.901000,606,8,12,24,-584,8,-612,0,107,16,457,0,-246,0,225,16,1485,8,-43,0,393,24,-67,8,1181,8,518,8,2,-1,?
2017-03-21 14:21:49.909000,613,8,15,24,-576,8,-610,0,113,16,467,0,-236,0,230,16,1498,8,-29,0,403,24,-59,8,1190,8,521,8,2,-1,?
2017-03-21 14:21:49.916000,613,8,14,24,-576,8,-612,0,117,16,470,0,-215,0,247,16,1511,8,-10,0,415,24,-39,8,1201,8,520,16,2,-1,?
2017-03-21 14:21:49.924000,609,8,10,24,-576,24,-617,0,114,16,467,0,-232,0,237,16,1496,8,-26,0,411,24,-46,8,1194,8,522,16,2,-1,?
2017-03-21 14:21:49.932000,607,8,3,24,-580,24,-614,24,111,16,463,0,-240,0,225,16,1488,8,-44,0,394,24,-57,8,1181,8,519,16,2,-1,?
2017-03-21 14:21:49.940000,603,8,6,24,-580,24,-610,24,112,8,469,0,-230,0,231,16,1499,8,-36,0,400,24,-53,8,1193,8,519,16,2,-1,?
2017-03-21 14:21:49.948000,605,8,13,24,-578,24,-611,24,116,8,472,0,-221,0,243,16,1508,8,-23,0,417,24,-40,8,1206,8,525,16,2,-1,?
2017-03-21 14:21:49.956000,612,8,9,24,-579,24,-610,24,115,8,467,0,-221,24,244,16,1506,8,-20,0,417,24,-35,8,1202,8,523,16,2,-1,?
2017-03-21 14:21:49.962000,611,8,7,24,-580,24,-614,24,112,8,468,0,-239,24,224,0,1495,8,-35,0,406,24,-55,8,1195,8,518,16,2,-1,?
2017-03-21 14:21:49.971000,606,8,10,24,-581,24,-613,24,113,8,463,0,-248,24,219,0,1492,24,-47,0,388,24,-70,8,1184,8,516,16,2,-1,?
2017-03-21 14:21:49.978000,605,8,8,24,-576,24,-606,24,113,8,463,0,-237,24,228,0,1496,24,-32,24,396,24,-58,8,1189,8,521,16,2,-1,?
2017-03-21 14:21:49.986000,614,8,6,24,-573,24,-606,24,112,8,470,0,-222,24,241,0,1506,24,-14,24,415,16,-39,8,1201,8,524,16,2,-1,?
2017-03-21 14:21:49.994000,615,8,8,24,-576,24,-615,24,112,8,468,0,-221,24,248,0,1512,24,-18,24,421,16,-40,0,1200,8,524,16,2,-1,?
2017-03-21 14:21:50.002000,609,8,7,24,-576,24,-612,24,111,8,463,0,-247,24,230,0,1494,24,-42,24,405,16,-60,0,1193,24,522,16,2,-1,?
2017-03-21 14:21:50.010000,609,8,5,24,-577,24,-603,24,109,8,461,0,-250,24,225,0,1485,24,-45,8,391,16,-61,0,1184,24,521,16,2,-1,?
2017-03-21 14:21:50.018000,612,8,7,24,-571,24,-615,24,112,8,466,0,-227,24,242,0,1502,24,-19,8,413,16,-42,0,1195,24,530,16,2,-1,?
2017-03-21 14:21:50.026000,612,8,13,24,-570,24,-623,24,115,8,468,0,-219,24,245,0,1512,24,-18,8,427,16,-37,0,1210,24,528,16,2,-1,?
2017-03-21 14:21:50.034000,609,8,12,24,-579,24,-613,24,111,8,465,0,-229,24,235,0,1507,24,-38,8,404,16,-50,0,1199,24,520,16,2,-1,?
2017-03-21 14:21:50.042000,612,8,5,24,-574,24,-613,24,110,8,466,0,-251,24,220,0,1491,24,-46,8,395,16,-65,0,1186,24,522,16,2,-1,?
2017-03-21 14:21:50.049000,614,8,6,24,-571,24,-616,24,110,8,462,0,-243,24,226,0,1488,24,-30,8,401,16,-58,0,1191,24,524,16,2,-1,?
2017-03-21 14:21:50.057000,614,8,11,24,-574,24,-615,24,111,8,464,0,-216,24,244,0,1508,24,-14,8,411,16,-36,0,1203,24,529,16,2,-1,?
2017-03-21 14:21:50.065000,615,8,9,24,-576,24,-613,24,112,8,466,0,-217,24,240,0,1510,24,-24,8,414,16,-41,0,1206,24,525,16,2,-1,?
2017-03-21 14:21:50.072000,611,8,4,24,-579,24,-612,24,104,8,461,0,-236,24,233,0,1494,24,-39,8,400,16,-62,0,1190,24,515,16,2,-1,?
2017-03-21 14:21:50.080000,607,8,10,24,-573,24,-615,24,105,8,464,0,-250,24,229,0,1490,24,-42,8,397,16,-63,0,1187,24,524,16,2,-1,?
2017-03-21 14:21:50.088000,611,8,16,24,-575,24,-613,24,118,8,468,0,-239,24,233,0,1502,24,-27,8,408,16,-49,0,1198,24,529,16,2,-1,?
2017-03-21 14:21:50.095000,613,8,8,24,-579,24,-615,24,118,8,466,0,-223,24,244,0,1513,24,-16,8,413,16,-44,0,1201,24,522,16,2,-1,?
2017-03-21 14:21:50.103000,613,8,7,24,-575,24,-617,24,109,8,470,0,-236,24,240,0,1502,24,-30,8,408,16,-51,0,1196,24,522,16,2,-1,?
2017-03-21 14:21:50.111000,606,8,10,24,-575,24,-613,24,109,8,468,0,-241,24,232,0,1488,24,-34,8,399,16,-56,0,1187,24,523,16,2,-1,?
2017-03-21 14:21:50.119000,604,8,9,24,-574,24,-612,24,114,8,465,0,-236,24,232,0,1490,24,-23,8,405,16,-54,0,1190,24,522,16,2,-1,?
2017-03-21 14:21:50.128000,614,8,7,24,-573,24,-616,24,111,8,466,0,-233,24,240,0,1500,24,-17,8,413,16,-45,0,1202,24,525,16,2,-1,?
2017-03-21 14:21:50.135000,618,8,11,24,-574,24,-616,24,110,8,468,0,-228,24,243,0,1506,24,-19,8,410,16,-45,0,1200,24,532,16,2,-1,?
2017-03-21 14:21:50.143000,610,8,14,24,-577,24,-613,24,114,8,468,0,-235,24,225,0,1494,24,-33,8,400,16,-60,0,1192,24,526,16,2,-1,?
2017-03-21 14:21:50.151000,607,8,6,24,-583,24,-614,24,112,8,465,0,-242,24,220,0,1488,24,-40,8,393,16,-68,0,1191,24,513,16,2,-1,?
2017-03-21 14:21:50.158000,615,8,3,24,-580,24,-618,24,112,8,467,0,-232,24,239,0,1503,24,-25,8,410,16,-51,0,1204,24,521,16,2,-1,?
2017-03-21 14:21:50.167000,614,8,6,24,-577,24,-613,24,117,8,470,0,-222,24,247,0,1514,24,-19,8,420,16,-39,0,1209,24,528,16,2,-1,?
2017-03-21 14:21:50.175000,606,8,9,24,-579,24,-610,24,113,8,468,0,-229,24,238,0,1505,24,-30,8,403,16,-50,0,1196,24,522,16,2,-1,?
2017-03-21 14:21:50.181000,607,8,11,24,-574,24,-619,24,109,8,468,0,-247,24,225,0,1491,24,-43,8,397,16,-67,0,1191,24,520,16,2,-1,?
2017-03-21 14:21:50.189000,614,8,10,24,-577,24,-616,24,113,8,468,0,-241,24,233,0,1499,24,-43,8,398,16,-62,0,1194,24,522,16,2,-1,?
2017-03-21 14:21:50.197000,614,8,6,24,-577,24,-608,24,113,8,467,0,-230,24,245,0,1513,24,-28,8,411,16,-48,0,1199,24,523,16,2,-1,?
2017-03-21 14:21:50.205000,610,8,9,24,-573,24,-613,24,110,8,470,0,-231,24,238,0,1507,24,-17,8,418,16,-44,0,1201,24,522,16,2,-1,?
2017-03-21 14:21:50.214000,610,8,13,24,-578,24,-617,24,109,8,471,0,-232,24,230,0,1492,24,-29,8,401,16,-49,0,1192,24,517,16,2,-1,?
2017-03-21 14:21:50.221000,612,8,13,24,-576,24,-616,24,112,8,472,0,-244,24,220,0,1484,24,-50,8,396,16,-58,0,1190,24,517,16,2,-1,?
2017-03-21 14:21:50.229000,610,8,10,24,-576,24,-611,24,112,8,469,0,-244,24,228,0,1493,24,-42,8,403,16,-58,0,1191,24,520,16,2,-1,?
2017-03-21 14:21:50.237000,610,8,5,24,-576,24,-606,24,109,8,465,0,-228,24,249,0,1510,24,-16,8,409,16,-42,0,1198,24,531,16,2,-1,?
2017-03-21 14:21:50.245000,615,8,9,24,-567,24,-607,24,107,8,466,0,-230,24,243,0,1510,24,-16,8,411,16,-38,0,1202,24,532,16,2,-1,?
2017-03-21 14:21:50.253000,609,8,11,24,-574,24,-614,24,110,8,459,0,-234,24,229,0,1495,24,-34,8,394,16,-55,0,1186,24,516,16,2,-1,?
2017-03-21 14:21:50.260000,603,8,8,24,-583,24,-614,24,111,8,462,0,-239,24,229,0,1487,24,-40,8,393,16,-65,0,1183,24,517,16,2,-1,?
2017-03-21 14:21:50.267000,612,8,7,24,-579,24,-607,24,113,8,471,0,-232,24,245,0,1503,24,-29,8,411,16,-47,0,1198,24,527,16,2,-1,?
2017-03-21 14:21:50.276000,616,8,8,24,-576,24,-606,24,115,8,470,0,-222,24,249,0,1513,24,-22,8,418,16,-33,0,1206,24,526,16,2,-1,?
2017-03-21 14:21:50.283000,612,8,10,24,-572,24,-610,24,114,8,471,0,-239,24,226,0,1494,24,-33,8,401,16,-53,0,1199,24,522,16,2,-1,?
2017-03-21 14:21:50.291000,610,8,6,24,-573,24,-612,24,115,8,467,0,-243,24,227,0,1489,24,-39,8,384,16,-72,0,1186,24,518,16,2,-1,?
2017-03-21 14:21:50.299000,610,8,6,24,-576,24,-615,24,115,8,469,0,-232,24,242,0,1504,24,-35,8,397,16,-59,0,1193,24,517,16,2,-1,?
2017-03-21 14:21:50.306000,609,8,8,24,-575,24,-612,24,112,8,474,0,-224,24,241,0,1509,24,-24,8,415,16,-37,0,1204,24,521,16,2,-1,?
2017-03-21 14:21:50.314000,609,8,5,24,-575,24,-608,24,110,8,468,0,-224,24,240,0,1506,24,-14,8,414,16,-35,0,1200,24,523,16,2,-1,?
2017-03-21 14:21:50.322000,609,8,7,24,-576,24,-608,24,115,8,465,0,-244,24,230,0,1496,24,-35,8,399,16,-55,0,1194,24,521,16,2,-1,?
2017-03-21 14:21:50.330000,607,8,7,24,-579,24,-611,24,116,8,465,0,-250,24,226,0,1490,24,-50,8,384,16,-63,0,1183,24,519,16,2,-1,?
2017-03-21 14:21:50.338000,612,8,5,24,-574,24,-616,24,110,8,467,0,-234,24,238,0,1495,24,-27,8,406,16,-49,0,1189,24,525,16,2,-1,?
2017-03-21 14:21:50.347000,618,8,7,24,-571,24,-615,24,112,8,468,0,-221,24,249,0,1504,24,-17,8,426,16,-40,0,1206,24,528,16,2,-1,?
2017-03-21 14:21:50.354000,614,8,5,24,-578,24,-611,24,116,8,465,0,-227,24,245,0,1503,24,-34,8,407,16,-53,0,1200,24,522,16,2,-1,?
2017-03-21 14:21:50.362000,612,8,3,24,-573,24,-616,24,117,8,467,0,-248,24,222,0,1488,24,-46,8,393,16,-67,0,1186,24,520,16,2,-1,?
2017-03-21 14:21:50.370000,612,8,5,24,-571,24,-617,24,117,8,469,0,-244,24,225,0,1488,24,-33,8,399,16,-54,0,1183,24,522,16,2,-1,?
2017-03-21 14:21:50.378000,614,8,7,24,-575,24,-614,24,111,8,465,0,-218,24,247,0,1504,24,-17,8,413,16,-34,0,1198,24,524,16,2,-1,?
2017-03-21 14:21:50.385000,617,8,9,24,-574,24,-618,24,110,8,465,0,-212,24,250,0,1503,24,-23,8,417,16,-40,0,1206,24,524,16,2,-1,?
2017-03-21 14:21:50.393000,610,8,11,24,-576,24,-620,24,111,8,470,0,-227,24,239,0,1498,24,-41,8,402,16,-59,0,1188,24,520,16,2,-1,?
2017-03-21 14:21:50.401000,605,0,13,24,-576,24,-619,24,108,8,468,0,-250,24,220,0,1492,24,-46,8,398,16,-67,0,1182,24,521,16,2,-1,?
2017-03-21 14:21:50.409000,613,0,8,24,-580,24,-614,24,111,8,459,0,-244,24,223,0,1495,24,-30,8,404,16,-57,0,1193,24,520,16,2,-1,?
2017-03-21 14:21:50.417000,617,0,2,24,-581,24,-612,24,118,8,457,0,-224,24,248,0,1511,24,-15,8,412,16,-41,0,1205,24,521,8,2,-1,?
2017-03-21 14:21:50.425000,612,0,6,24,-578,16,-615,24,113,8,462,0,-236,24,241,0,1510,24,-24,8,419,16,-46,0,1207,24,526,8,2,-1,?
2017-03-21 14:21:50.433000,607,0,7,24,-580,16,-615,0,106,8,464,0,-247,24,225,0,1493,24,-34,8,401,16,-59,0,1195,24,522,8,2,-1,?
2017-03-21 14:21:50.440000,607,0,7,24,-574,16,-615,0,112,8,469,0,-245,24,228,0,1489,24,-27,8,395,16,-53,0,1195,24,522,8,2,-1,?
2017-03-21 14:21:50.448000,611,0,11,24,-573,16,-614,0,116,8,468,0,-236,24,237,0,1500,24,-15,8,413,16,-41,0,1200,24,524,8,2,-1,?
2017-03-21 14:21:50.456000,613,0,6,24,-578,16,-612,0,113,8,463,0,-222,24,243,0,1509,24,-21,8,416,16,-41,0,1199,24,524,8,2,-1,?
2017-03-21 14:21:50.464000,611,0,-1,24,-576,16,-614,0,116,8,467,0,-231,24,234,24,1501,24,-38,8,405,16,-52,0,1197,24,525,8,2,-1,?
2017-03-21 14:21:50.471000,607,0,2,24,-578,16,-616,0,118,8,466,0,-240,24,228,24,1494,16,-37,8,393,16,-55,0,1188,24,517,8,2,-1,?
2017-03-21 14:21:50.480000,610,0,11,24,-579,16,-619,0,115,8,463,0,-238,24,230,24,1493,16,-26,24,404,16,-45,0,1193,24,516,8,2,-1,?
2017-03-21 14:21:50.487000,617,0,16,24,-575,16,-613,0,115,8,470,0,-230,24,242,24,1503,16,-20,24,426,16,-37,0,1206,24,524,8,2,-1,?
2017-03-21 14:21:50.494000,612,0,10,24,-576,16,-606,0,115,8,473,0,-228,24,251,24,1511,16,-22,24,417,16,-46,8,1197,24,528,8,2,-1,?
2017-03-21 14:21:50.503000,604,0,8,24,-577,16,-612,0,115,8,467,0,-246,24,228,24,1495,16,-38,24,398,16,-63,8,1193,24,522,8,2,-1,?
2017-03-21 14:21:50.510000,609,0,8,24,-578,16,-618,0,113,8,462,0,-243,24,220,24,1487,16,-44,16,393,16,-59,8,1199,24,518,8,2,-1,?
2017-03-21 14:21:50.518000,618,0,5,24,-573,16,-614,0,110,8,468,0,-225,24,241,24,1505,16,-30,16,408,0,-46,8,1204,24,526,8,2,-1,?
2017-03-21 14:21:50.526000,616,0,5,24,-569,16,-608,0,108,8,473,0,-225,24,247,24,1511,16,-22,16,416,0,-43,8,1204,24,529,8,2,-1,?
2017-03-21 14:21:50.533000,605,0,7,24,-577,16,-609,0,112,8,465,0,-231,24,237,24,1498,16,-27,16,399,0,-48,8,1195,24,524,8,2,-1,?
2017-03-21 14:21:50.542000,603,0,11,24,-578,16,-615,0,116,8,463,0,-241,24,222,24,1493,16,-38,16,393,0,-59,8,1191,24,523,8,2,-1,?
2017-03-21 14:21:50.550000,608,0,9,24,-575,16,-612,0,111,8,471,0,-240,24,228,24,1505,16,-37,16,396,0,-59,8,1186,24,520,8,2,-1,?
2017-03-21 14:21:50.557000,616,0,8,24,-572,16,-608,0,110,8,479,0,-228,24,242,24,1513,16,-23,16,408,0,-43,8,1194,24,525,8,2,-1,?
2017-03-21 14:21:50.565000,620,0,15,24,-571,16,-614,0,117,8,474,0,-227,24,242,24,1507,16,-19,16,421,0,-39,8,1207,24,528,8,2,-1,?
2017-03-21 14:21:50.573000,610,0,13,24,-579,16,-616,0,110,8,461,0,-232,24,241,24,1498,16,-30,16,409,0,-54,8,1192,24,513,8,2,-1,?
2017-03-21 14:21:50.580000,603,0,6,24,-577,16,-615,0,103,8,473,0,-243,24,229,24,1489,16,-45,16,392,0,-67,8,1186,24,517,8,2,-1,?
2017-03-21 14:21:50.589000,608,0,6,24,-576,16,-611,0,113,8,476,0,-235,24,234,24,1499,16,-39,16,396,0,-55,8,1197,24,529,8,2,-1,?
2017-03-21 14:21:50.597000,614,0,9,24,-580,16,-611,0,118,8,461,0,-219,24,252,24,1513,16,-19,16,414,0,-35,8,1202,24,524,8,2,-1,?
2017-03-21 14:21:50.604000,609,0,8,24,-577,16,-614,0,113,8,465,0,-234,24,237,24,1503,16,-23,16,410,0,-43,8,1196,24,519,8,2,-1,?
2017-03-21 14:21:50.612000,603,0,2,24,-577,16,-613,0,114,8,469,0,-243,24,226,24,1494,16,-39,16,383,0,-60,8,1190,24,518,8,2,-1,?
2017-03-21 14:21:50.620000,608,0,2,24,-576,16,-611,0,115,8,471,0,-238,24,233,24,1498,16,-36,16,390,0,-54,8,1198,24,519,8,2,-1,?
2017-03-21 14:21:50.628000,613,0,9,24,-577,16,-614,0,114,8,473,0,-228,24,240,24,1508,16,-22,16,415,0,-38,8,1200,24,522,8,2,-1,?
2017-03-21 14:21:50.636000,613,0,11,24,-580,16,-614,0,116,8,470,0,-223,24,244,24,1512,16,-18,16,420,0,-38,8,1199,24,523,8,2,-1,?
2017-03-21 14:21:50.643000,611,0,5,24,-578,16,-612,0,116,8,471,0,-244,24,230,24,1497,16,-34,16,405,0,-57,8,1202,24,523,8,2,-1,?
2017-03-21 14:21:50.651000,608,0,1,24,-579,16,-613,0,110,8,467,0,-250,24,219,24,1490,16,-43,16,387,0,-69,8,1187,24,524,8,2,-1,?
2017-03-21 14:21:50.659000,610,0,8,24,-575,16,-617,0,107,8,464,0,-237,24,222,24,1499,16,-34,16,402,0,-61,8,1184,24,529,8,2,-1,?
2017-03-21 14:21:50.667000,610,0,13,24,-566,16,-611,0,112,8,465,0,-224,24,238,24,1509,16,-21,16,421,0,-43,8,1206,24,525,8,2,-1,?
2017-03-21 14:21:50.674000,607,0,7,24,-572,16,-604,0,115,8,464,0,-221,24,250,24,1510,16,-17,16,411,0,-39,8,1213,24,520,8,2,-1,?
2017-03-21 14:21:50.683000,609,0,3,24,-579,16,-609,0,113,8,466,0,-243,24,225,24,1492,16,-34,16,399,0,-59,8,1201,24,523,8,2,-1,?
2017-03-21 14:21:50.691000,611,0,6,24,-582,16,-610,0,112,8,465,0,-251,24,219,24,1485,16,-39,16,397,0,-63,8,1189,24,526,8,2,-1,?
2017-03-21 14:21:50.698000,613,0,9,24,-575,16,-609,0,111,8,466,0,-232,24,245,24,1499,16,-20,16,413,0,-41,8,1199,24,526,8,2,-1,?
2017-03-21 14:21:50.705000,619,0,7,24,-568,16,-611,0,110,8,468,0,-219,24,250,24,1509,16,-13,16,426,0,-35,8,1210,24,522,8,2,-1,?
2017-03-21 14:21:50.713000,617,0,1,24,-577,16,-611,0,109,8,466,0,-223,24,236,24,1502,16,-30,16,406,0,-53,8,1194,24,521,8,2,-1,?
2017-03-21 14:21:50.722000,608,0,6,24,-578,16,-612,0,109,8,466,0,-246,24,219,24,1483,16,-42,16,390,0,-66,8,1185,24,527,8,2,-1,?
2017-03-21 14:21:50.730000,609,0,11,24,-575,16,-609,0,112,8,466,0,-245,24,225,24,1487,16,-30,16,398,0,-55,8,1190,24,523,8,2,-1,?
2017-03-21 14:21:50.738000,617,0,6,24,-571,16,-612,0,113,8,465,0,-220,24,249,24,1512,16,-15,16,415,0,-36,8,1201,24,520,8,2,-1,?
2017-03-21 14:21:50.745000,617,0,5,24,-570,16,-619,0,113,8,467,0,-221,24,249,24,1510,16,-19,16,421,0,-39,8,1206,24,529,8,2,-1,?
2017-03-21 14:21:50.753000,609,0,8,24,-580,16,-618,0,115,8,466,0,-240,24,235,24,1491,16,-37,16,400,0,-57,8,1195,24,529,8,2,-1,?
2017-03-21 14:21:50.760000,610,0,7,24,-583,16,-616,0,113,8,465,0,-249,24,222,24,1489,16,-46,16,396,0,-62,8,1193,24,523,8,2,-1,?
2017-03-21 14:21:50.768000,615,0,6,24,-580,16,-616,0,110,8,464,0,-237,24,230,24,1501,16,-29,16,411,0,-50,8,1202,24,522,8,2,-1,?
2017-03-21 14:21:50.777000,612,0,6,24,-575,16,-615,0,109,8,465,0,-224,24,250,24,1509,16,-15,16,414,0,-44,8,1206,24,527,8,2,-1,?
2017-03-21 14:21:50.783000,612,0,8,24,-572,16,-613,0,112,8,471,0,-235,24,241,24,1501,16,-29,16,409,0,-57,8,1202,24,530,8,2,-1,?
2017-03-21 14:21:50.792000,611,0,8,24,-579,16,-610,0,109,8,469,0,-241,24,226,24,1493,16,-39,16,394,0,-61,8,1189,24,525,8,2,-1,?
2017-03-21 14:21:50.800000,606,0,9,24,-580,16,-612,0,110,8,463,0,-239,24,226,24,1495,16,-30,16,404,0,-49,8,1193,24,527,8,2,-1,?
2017-03-21 14:21:50.808000,608,0,11,24,-576,16,-615,0,114,8,463,0,-228,24,240,24,1506,16,-17,16,423,0,-41,8,1204,24,525,8,2,-1,?
2017-03-21 14:21:50.815000,611,0,11,24,-578,16,-614,0,111,8,463,0,-223,24,248,24,1515,16,-15,16,411,0,-48,8,1198,24,517,8,2,-1,?
2017-03-21 14:21:50.824000,612,0,17,24,-579,16,-615,0,111,8,465,0,-245,24,230,24,1502,16,-30,16,399,0,-57,8,1189,24,522,8,2,-1,?
2017-03-21 14:21:50.831000,604,0,12,24,-580,16,-616,0,114,8,465,0,-244,24,229,24,1493,16,-41,16,398,0,-57,8,1185,24,522,8,2,-1,?
2017-03-21 14:21:50.839000,602,0,6,24,-576,16,-614,0,114,8,469,0,-226,24,243,24,1497,16,-30,16,407,0,-47,8,1199,24,518,8,2,-1,?
2017-03-21 14:21:50.847000,615,0,10,24,-577,16,-611,0,112,8,470,0,-227,24,244,24,1502,16,-15,16,418,0,-39,8,1210,24,523,8,2,-1,?
2017-03-21 14:21:50.854000,622,0,11,24,-582,16,-615,0,108,8,463,0,-229,24,241,24,1501,16,-21,16,411,0,-47,8,1198,24,523,8,2,-1,?
2017-03-21 14:21:50.863000,612,0,9,24,-574,16,-619,0,109,8,465,0,-238,24,225,24,1492,16,-41,16,396,0,-63,8,1190,24,517,8,2,-1,?
2017-03-21 14:21:50.870000,603,0,10,24,-573,16,-612,0,116,8,465,0,-239,24,226,24,1498,16,-44,16,389,0,-61,8,1186,24,515,8,2,-1,?
2017-03-21 14:21:50.878000,610,0,11,24,-574,16,-614,0,117,8,464,0,-229,24,246,24,1515,16,-24,16,405,0,-44,8,1192,24,522,8,2,-1,?
2017-03-21 14:21:50.885000,614,0,10,24,-571,16,-619,0,113,8,469,0,-228,24,245,24,1511,16,-18,16,421,0,-44,8,1203,24,524,8,2,-1,?
2017-03-21 14:21:50.894000,611,0,6,24,-576,16,-611,0,112,8,467,0,-232,24,235,24,1495,16,-27,16,404,0,-54,8,1193,24,516,8,2,-1,?
2017-03-21 14:21:50.902000,607,0,7,24,-573,16,-611,0,114,8,466,0,-245,24,224,24,1489,16,-43,16,387,0,-62,8,1189,24,521,8,2,-1,?
2017-03-21 14:21:50.910000,603,24,11,24,-575,16,-616,0,115,8,463,0,-238,24,229,24,1498,16,-35,16,393,0,-57,8,1196,24,524,8,2,-1,?
2017-03-21 14:21:50.917000,608,24,8,16,-582,16,-612,0,113,8,470,0,-223,24,246,24,1509,16,-10,16,415,0,-41,8,1200,24,524,8,2,-1,?
2017-03-21 14:21:50.925000,613,24,8,16,-576,16,-610,0,115,8,477,0,-229,24,238,24,1505,16,-17,16,418,0,-38,8,1199,24,523,8,2,-1,?
2017-03-21 14:21:50.933000,606,24,9,16,-575,16,-614,0,118,8,466,0,-235,24,229,24,1496,16,-39,16,396,0,-53,8,1192,24,518,8,2,-1,?
2017-03-21 14:21:50.941000,602,24,10,16,-579,16,-620,16,113,8,466,0,-238,24,231,24,1495,16,-40,16,395,0,-63,8,1191,24,519,8,2,-1,?
2017-03-21 14:21:50.948000,610,24,9,16,-575,16,-615,16,108,16,470,0,-231,24,242,24,1509,16,-22,16,409,0,-45,8,1194,24,524,8,2,-1,?
2017-03-21 14:21:50.957000,613,24,9,16,-572,16,-608,16,110,16,465,8,-224,24,245,24,1514,16,-12,16,414,0,-30,8,1200,24,525,8,2,-1,?
2017-03-21 14:21:50.964000,608,24,11,16,-574,16,-610,16,112,16,469,8,-239,8,227,24,1498,16,-31,16,410,0,-52,8,1200,24,527,8,2,-1,?
2017-03-21 14:21:50.972000,604,24,8,16,-579,16,-616,16,111,16,471,8,-244,8,226,24,1496,16,-49,16,394,0,-68,8,1183,24,525,8,2,-1,?
2017-03-21 14:21:50.980000,609,24,9,16,-575,16,-616,16,113,16,471,8,-236,8,233,24,1508,24,-40,16,398,0,-56,8,1186,24,522,8,2,-1,?
2017-03-21 14:21:50.988000,617,24,15,16,-574,16,-607,16,113,16,470,8,-225,8,239,24,1516,24,-20,16,418,0,-37,8,1204,24,524,8,2,-1,?
2017-03-21 14:21:50.996000,613,24,11,16,-579,16,-608,16,111,16,467,8,-219,8,246,24,1513,24,-16,16,419,24,-30,8,1203,24,525,8,2,-1,?
2017-03-21 14:21:51.003000,608,24,8,16,-575,16,-617,16,110,16,471,8,-243,8,225,24,1494,24,-36,16,400,24,-50,24,1193,24,526,8,2,-1,?
2017-03-21 14:21:51.011000,614,24,7,16,-577,16,-618,16,109,16,471,8,-253,8,218,24,1490,24,-45,16,389,24,-66,24,1182,24,523,8,2,-1,?
2017-03-21 14:21:51.019000,616,24,6,16,-580,16,-620,16,111,16,468,8,-235,8,235,24,1507,24,-26,0,408,24,-48,24,1195,24,522,8,2,-1,?
2017-03-21 14:21:51.027000,611,24,9,16,-574,16,-615,16,115,16,468,8,-222,8,247,24,1511,24,-15,0,422,0,-31,24,1209,24,522,8,2,-1,?
2017-03-21 14:21:51.034000,609,24,10,16,-574,16,-610,16,114,16,468,8,-225,8,246,24,1502,24,-28,0,404,0,-47,24,1198,24,522,8,2,-1,?
2017-03-21 14:21:51.043000,614,24,7,16,-570,16,-620,16,110,16,471,8,-243,8,223,24,1490,24,-40,0,395,0,-68,24,1195,24,523,8,2,-1,?
2017-03-21 14:21:51.050000,613,24,2,16,-572,16,-621,16,108,16,467,8,-241,8,224,24,1492,24,-30,0,402,0,-57,24,1197,24,519,8,2,-1,?
2017-03-21 14:21:51.058000,609,24,7,16,-574,16,-614,16,107,16,462,8,-225,8,250,24,1504,24,-18,0,418,0,-40,24,1198,24,524,8,2,-1,?
2017-03-21 14:21:51.066000,609,24,16,16,-574,16,-615,16,114,16,465,8,-225,8,251,24,1510,24,-25,0,424,0,-45,24,1204,24,532,8,2,-1,?
2017-03-21 14:21:51.074000,605,24,11,16,-580,16,-613,16,117,16,467,8,-228,8,236,24,1507,24,-39,0,398,0,-59,24,1196,24,525,8,2,-1,?
2017-03-21 14:21:51.082000,604,24,7,16,-574,16,-614,16,107,16,467,8,-245,8,221,24,1490,24,-45,0,391,0,-67,24,1189,24,521,8,2,-1,?
2017-03-21 14:21:51.089000,608,24,15,16,-575,16,-615,16,107,16,467,8,-246,8,230,24,1486,24,-32,0,412,0,-57,24,1193,24,523,8,2,-1,?
2017-03-21 14:21:51.096000,610,24,14,16,-582,16,-610,16,117,16,469,8,-223,8,251,24,1508,24,-18,0,422,0,-40,24,1201,24,526,8,2,-1,?
2017-03-21 14:21:51.104000,607,24,6,16,-579,16,-611,16,114,16,469,8,-229,8,243,24,1510,24,-26,0,416,0,-44,24,1204,24,527,8,2,-1,?
2017-03-21 14:21:51.113000,605,24,5,16,-580,16,-615,16,101,16,464,8,-243,8,231,24,1493,24,-33,0,398,0,-60,24,1190,24,521,8,2,-1,?
2017-03-21 14:21:51.120000,611,24,10,16,-578,16,-619,16,104,16,468,8,-241,8,229,24,1488,24,-29,0,404,0,-57,24,1189,24,521,8,2,-1,?
2017-03-21 14:21:51.128000,615,24,11,16,-576,16,-616,16,114,16,471,8,-234,8,238,24,1502,24,-19,0,416,0,-40,24,1199,24,523,8,2,-1,?
2017-03-21 14:21:51.136000,613,24,8,16,-579,16,-607,16,113,16,469,8,-226,8,248,24,1511,24,-18,0,409,0,-39,24,1203,24,525,8,2,-1,?
2017-03-21 14:21:51.144000,612,24,9,16,-580,16,-609,16,112,16,469,8,-236,8,234,24,1496,24,-33,0,400,0,-54,24,1195,24,528,8,2,-1,?
2017-03-21 14:21:51.152000,607,24,8,16,-578,16,-619,16,113,16,464,8,-242,8,225,24,1490,24,-40,0,392,0,-57,24,1181,24,522,8,2,-1,?
2017-03-21 14:21:51.160000,604,24,8,16,-577,16,-623,16,111,16,462,8,-236,8,231,24,1498,24,-28,0,406,0,-47,24,1196,24,520,8,2,-1,?
2017-03-21 14:21:51.168000,612,24,11,16,-577,16,-613,16,113,16,472,8,-227,8,243,24,1503,24,-18,0,422,0,-39,24,1212,24,524,8,2,-1,?
2017-03-21 14:21:51.174000,613,24,10,16,-578,16,-611,16,112,16,475,8,-225,8,247,24,1506,24,-24,0,408,0,-44,24,1201,24,526,8,2,-1,?
2017-03-21 14:21:51.183000,605,24,7,16,-577,16,-617,16,111,16,467,8,-243,8,230,24,1496,24,-39,0,394,0,-62,24,1197,24,524,8,2,-1,?
2017-03-21 14:21:51.191000,601,24,4,16,-579,16,-612,16,114,16,463,8,-244,8,231,24,1490,24,-45,0,394,0,-68,24,1194,24,521,8,2,-1,?
2017-03-21 14:21:51.198000,610,24,8,16,-576,16,-611,16,117,16,469,8,-223,8,247,24,1505,24,-28,0,409,0,-51,24,1197,24,527,8,2,-1,?
2017-03-21 14:21:51.206000,616,24,17,16,-573,16,-617,16,117,16,472,8,-220,8,242,24,1512,24,-18,0,415,0,-40,24,1205,24,522,8,2,-1,?
2017-03-21 14:21:51.215000,611,24,15,16,-581,16,-619,16,114,16,465,8,-232,8,233,24,1500,24,-29,0,399,0,-53,24,1196,24,517,8,2,-1,?
2017-03-21 14:21:51.222000,608,24,11,16,-579,16,-617,16,109,16,464,8,-245,8,229,24,1495,24,-45,0,392,0,-65,24,1189,24,526,8,2,-1,?
2017-03-21 14:21:51.230000,607,24,11,16,-573,16,-610,16,109,16,465,8,-239,8,233,24,1505,24,-41,0,393,0,-59,24,1187,24,521,8,2,-1,?
2017-03-21 14:21:51.238000,609,24,12,16,-570,16,-610,16,115,16,466,8,-225,8,244,24,1507,24,-23,0,410,0,-46,24,1196,24,515,8,2,-1,?
2017-03-21 14:21:51.245000,614,24,9,16,-571,16,-616,16,117,16,472,8,-226,8,244,24,1502,24,-17,0,424,0,-41,24,1204,24,522,8,2,-1,?
2017-03-21 14:21:51.254000,611,24,5,16,-581,16,-615,16,111,16,472,8,-235,8,238,24,1497,24,-29,0,402,0,-53,24,1190,24,519,8,2,-1,?
2017-03-21 14:21:51.261000,606,24,9,16,-580,16,-618,16,108,16,474,8,-252,8,228,24,1487,24,-46,0,391,0,-66,24,1184,24,514,8,2,-1,?
2017-03-21 14:21:51.268000,614,24,10,16,-575,16,-619,16,113,16,468,8,-238,8,233,24,1498,24,-39,0,403,0,-55,24,1193,24,521,8,2,-1,?
2017-03-21 14:21:51.276000,620,24,5,16,-577,16,-613,16,115,16,466,8,-211,8,248,24,1516,24,-16,0,417,0,-36,24,1202,24,527,8,2,-1,?
2017-03-21 14:21:51.284000,614,24,10,16,-576,16,-613,16,114,16,472,8,-225,8,234,24,1507,24,-21,0,410,0,-46,24,1200,24,521,8,2,-1,?
2017-03-21 14:21:51.293000,606,24,13,16,-583,16,-610,16,111,16,461,8,-235,8,226,24,1495,24,-38,0,388,0,-61,24,1184,24,517,8,2,-1,?
2017-03-21 14:21:51.300000,607,24,9,16,-577,16,-607,16,110,16,464,8,-227,8,233,24,1499,24,-37,0,398,0,-56,24,1192,24,527,8,2,-1,?
2017-03-21 14:21:51.307000,615,24,9,16,-570,16,-614,16,111,16,475,8,-222,8,245,24,1508,24,-25,0,415,0,-39,24,1205,24,528,8,2,-1,?
2017-03-21 14:21:51.315000,617,24,11,16,-576,16,-623,16,111,16,463,8,-222,8,255,24,1510,24,-19,0,414,0,-34,24,1203,24,521,8,2,-1,?
2017-03-21 14:21:51.323000,611,24,11,16,-571,16,-615,16,111,16,459,8,-238,8,234,24,1498,24,-31,0,407,0,-52,24,1197,24,525,8,2,-1,?
2017-03-21 14:21:51.332000,608,24,6,16,-572,16,-605,16,106,16,467,8,-245,8,219,24,1490,24,-42,0,392,0,-65,24,1187,24,524,8,2,-1,?
2017-03-21 14:21:51.340000,612,24,8,16,-578,16,-613,16,103,16,470,8,-241,8,226,24,1491,24,-37,0,395,0,-53,24,1189,24,516,8,2,-1,?
2017-03-21 14:21:51.348000,615,24,14,16,-573,16,-616,16,114,16,466,8,-226,8,246,24,1501,24,-22,0,416,0,-35,24,1201,24,520,8,2,-1,?
2017-03-21 14:21:51.355000,616,24,8,16,-571,16,-609,16,117,16,466,8,-217,8,253,24,1514,24,-15,0,414,0,-38,24,1200,24,525,8,2,-1,?
2017-03-21 14:21:51.363000,617,24,5,16,-575,16,-613,16,109,16,470,8,-242,8,225,24,1498,24,-34,0,400,0,-59,24,1193,24,525,8,2,-1,?
2017-03-21 14:21:51.370000,614,24,10,16,-579,16,-616,16,109,16,465,8,-248,8,220,24,1484,24,-41,0,397,0,-61,24,1188,24,522,8,2,-1,?
2017-03-21 14:21:51.378000,610,24,15,16,-570,16,-611,16,116,16,463,8,-226,8,243,24,1504,24,-21,0,420,0,-36,24,1198,24,520,8,2,-1,?
2017-03-21 14:21:51.387000,612,24,16,16,-570,16,-612,16,115,16,469,8,-221,8,246,24,1515,24,-17,0,427,0,-31,24,1205,24,522,8,2,-1,?
2017-03-21 14:21:51.393000,609,24,12,16,-582,16,-616,16,111,16,463,8,-228,8,239,24,1503,24,-33,0,400,0,-54,24,1193,24,524,8,2,-1,?
2017-03-21 14:21:51.402000,608,24,9,16,-579,16,-619,16,113,16,457,8,-248,8,225,24,1486,24,-41,0,398,0,-67,24,1191,24,526,8,2,-1,?
2017-03-21 14:21:51.410000,612,24,7,16,-577,16,-617,16,120,16,459,8,-243,8,228,24,1490,24,-29,0,411,0,-55,24,1197,24,524,8,2,-1,?
2017-03-21 14:21:51.418000,614,24,7,8,-577,16,-617,16,117,16,465,8,-219,8,249,24,1512,24,-17,0,420,0,-40,24,1201,24,526,8,2,-1,?
2017-03-21 14:21:51.426000,614,24,11,8,-570,16,-617,16,110,16,466,8,-224,8,250,24,1511,24,-23,0,422,0,-44,24,1202,24,530,16,2,-1,?
2017-03-21 14:21:51.434000,608,24,5,8,-576,24,-613,16,109,16,463,8,-238,8,234,24,1494,24,-33,0,403,0,-58,24,1191,24,523,16,2,-1,?
2017-03-21 14:21:51.441000,607,24,-1,8,-578,24,-611,24,111,16,467,8,-246,8,219,24,1483,24,-32,0,397,0,-61,24,1192,24,521,16,2,-1,?
2017-03-21 14:21:51.450000,613,24,6,8,-575,24,-610,24,112,24,467,8,-236,8,230,24,1490,24,-21,0,410,0,-53,24,1197,24,522,16,2,-1,?
2017-03-21 14:21:51.456000,616,24,12,8,-576,24,-613,24,112,24,466,16,-224,8,251,24,1507,24,-20,0,413,0,-43,24,1200,24,525,16,2,-1,?
2017-03-21 14:21:51.465000,613,24,11,8,-575,24,-615,24,114,24,469,16,-238,8,236,24,1504,24,-33,0,408,0,-46,24,1200,24,529,16,2,-1,?
2017-03-21 14:21:51.473000,607,24,4,8,-579,24,-609,24,115,24,463,16,-250,8,223,24,1493,24,-38,0,396,0,-55,24,1189,24,518,16,2,-1,?
2017-03-21 14:21:51.480000,606,24,7,8,-576,24,-609,24,112,24,463,16,-245,8,230,24,1492,24,-29,0,405,0,-54,24,1193,24,518,16,2,-1,?
2017-03-21 14:21:51.488000,613,24,13,8,-573,24,-613,24,110,24,469,16,-228,8,243,24,1505,24,-15,8,419,0,-39,24,1204,24,524,16,2,-1,?
2017-03-21 14:21:51.496000,611,24,6,8,-575,24,-612,24,111,24,471,16,-224,8,248,24,1508,24,-16,8,411,24,-40,24,1199,24,523,16,2,-1,?
2017-03-21 14:21:51.504000,606,24,1,8,-572,24,-613,24,112,24,471,16,-244,8,227,24,1488,24,-38,8,400,24,-61,24,1192,24,521,16,2,-1,?
2017-03-21 14:21:51.511000,607,24,5,8,-575,24,-613,24,113,24,463,16,-243,8,224,24,1489,24,-48,8,386,24,-61,24,1186,24,518,16,2,-1,?
2017-03-21 14:21:51.519000,614,24,10,8,-575,24,-617,24,119,24,459,16,-231,8,236,24,1508,24,-31,24,397,24,-46,24,1195,24,525,16,2,-1,?
2017-03-21 14:21:51.526000,618,24,12,8,-572,24,-617,24,121,24,466,16,-228,8,241,24,1511,24,-18,24,419,16,-42,24,1206,24,527,16,2,-1,?
2017-03-21 14:21:51.534000,614,24,8,8,-573,24,-611,24,118,24,466,16,-224,8,245,24,1499,24,-24,24,410,16,-49,16,1199,24,519,16,2,-1,?
2017-03-21 14:21:51.543000,606,24,6,8,-570,24,-611,24,118,24,464,16,-238,8,230,24,1488,24,-39,24,392,16,-60,16,1192,24,519,16,2,-1,?
2017-03-21 14:21:51.550000,602,24,5,8,-578,24,-614,24,115,24,464,16,-243,8,226,24,1500,24,-42,24,389,16,-61,16,1188,24,520,16,2,-1,?
2017-03-21 14:21:51.559000,611,24,9,8,-582,24,-613,24,111,24,468,16,-229,8,239,24,1514,24,-26,24,410,16,-46,16,1193,24,523,16,2,-1,?
2017-03-21 14:21:51.566000,616,24,13,8,-573,24,-609,24,114,24,474,16,-227,8,245,24,1504,24,-16,24,424,16,-39,16,1197,24,523,16,2,-1,?
2017-03-21 14:21:51.574000,608,24,10,8,-577,24,-610,24,114,24,469,16,-236,8,238,24,1492,24,-31,24,403,16,-50,16,1186,24,517,16,2,-1,?
2017-03-21 14:21:51.582000,602,24,7,8,-581,24,-617,24,109,24,469,16,-251,8,218,24,1486,24,-49,24,387,16,-69,16,1185,24,518,16,2,-1,?
2017-03-21 14:21:51.590000,607,24,6,8,-578,24,-616,24,114,24,472,16,-240,8,229,24,1496,24,-36,24,395,16,-68,16,1188,24,522,16,2,-1,?
2017-03-21 14:21:51.597000,612,24,8,8,-577,24,-615,24,120,24,472,16,-217,8,252,24,1512,24,-15,24,415,16,-42,16,1199,24,526,16,2,-1,?
2017-03-21 14:21:51.606000,613,24,13,8,-575,24,-616,24,117,24,472,16,-223,8,240,24,1508,24,-21,24,414,16,-37,16,1207,24,525,16,2,-1,?
2017-03-21 14:21:51.613000,607,24,10,8,-580,24,-611,24,111,24,464,16,-235,8,230,24,1495,24,-36,24,390,16,-56,16,1186,24,519,16,2,-1,?
2017-03-21 14:21:51.621000,606,24,9,8,-578,24,-612,24,111,24,469,16,-244,8,234,24,1488,24,-43,24,393,16,-61,16,1182,24,522,16,2,-1,?
2017-03-21 14:21:51.629000,611,24,11,8,-574,24,-611,24,114,24,473,16,-234,8,244,24,1501,24,-33,24,408,16,-45,16,1199,24,529,16,2,-1,?
2017-03-21 14:21:51.636000,615,24,10,8,-576,24,-616,24,111,24,463,16,-221,8,250,24,1509,24,-18,24,412,16,-36,16,1204,24,529,16,2,-1,?
2017-03-21 14:21:51.645000,613,24,6,8,-578,24,-627,24,110,24,461,16,-237,8,231,24,1493,24,-31,24,410,16,-48,16,1194,24,527,16,2,-1,?
2017-03-21 14:21:51.652000,606,24,4,8,-583,24,-620,24,111,24,463,16,-244,8,224,24,1487,24,-46,24,397,16,-60,16,1180,24,522,16,2,-1,?
2017-03-21 14:21:51.660000,610,24,7,8,-580,24,-612,24,108,24,467,16,-241,8,236,24,1498,24,-39,24,399,16,-64,16,1188,24,521,16,2,-1,?
2017-03-21 14:21:51.668000,618,24,9,8,-574,24,-616,24,113,24,468,16,-229,8,245,24,1508,24,-26,24,414,16,-52,16,1203,24,523,16,2,-1,?
2017-03-21 14:21:51.676000,615,24,8,8,-574,24,-619,24,118,24,464,16,-217,8,250,24,1512,24,-21,24,414,16,-37,16,1203,24,523,16,2,-1,?
2017-03-21 14:21:51.684000,612,24,7,8,-572,24,-616,24,116,24,461,16,-239,8,231,24,1496,24,-38,24,402,16,-53,16,1198,24,525,16,2,-1,?
2017-03-21 14:21:51.692000,610,24,4,8,-575,24,-612,24,109,24,461,16,-251,8,223,24,1485,24,-41,24,392,16,-66,16,1187,24,520,16,2,-1,?
2017-03-21 14:21:51.698000,610,24,7,8,-574,24,-617,24,109,24,467,16,-238,8,235,24,1498,24,-18,24,409,16,-50,16,1195,24,520,16,2,-1,?
2017-03-21 14:21:51.706000,615,24,13,8,-572,24,-619,24,113,24,471,16,-229,8,243,24,1509,24,-15,24,426,16,-42,16,1209,24,526,16,2,-1,?
2017-03-21 14:21:51.714000,612,24,8,8,-578,24,-614,24,114,24,464,16,-228,8,246,24,1502,24,-30,24,410,16,-54,16,1198,24,525,16,2,-1,?
2017-03-21 14:21:51.722000,608,24,5,8,-576,24,-616,24,111,24,462,16,-245,8,226,24,1490,24,-38,24,400,16,-65,16,1189,24,524,16,2,-1,?
2017-03-21 14:21:51.730000,609,24,7,8,-578,24,-615,24,109,24,465,16,-244,8,228,24,1495,24,-34,24,404,16,-57,16,1191,24,524,16,2,-1,?
2017-03-21 14:21:51.737000,611,24,10,8,-577,24,-610,24,113,24,469,16,-222,8,252,24,1511,24,-23,24,415,16,-37,16,1203,24,527,16,2,-1,?
2017-03-21 14:21:51.745000,615,24,14,8,-571,24,-613,24,114,24,468,16,-224,8,250,24,1510,24,-20,24,421,16,-37,16,1212,24,526,16,2,-1,?
2017-03-21 14:21:51.753000,614,24,10,8,-579,24,-620,24,108,24,463,16,-234,8,232,24,1500,24,-33,24,399,16,-56,16,1195,24,516,16,2,-1,?
2017-03-21 14:21:51.761000,606,24,8,8,-581,24,-616,24,111,24,467,16,-246,8,215,24,1486,24,-48,24,390,16,-65,16,1184,24,520,16,2,-1,?
2017-03-21 14:21:51.779000,606,24,9,8,-577,24,-610,24,116,24,465,16,-241,8,229,24,1491,24,-35,24,403,16,-51,16,1192,24,524,16,2,-1,?
2017-03-21 14:21:51.780000,616,24,8,8,-576,24,-617,24,110,24,463,16,-222,8,256,24,1514,24,-15,24,415,16,-34,16,1205,24,522,16,2,-1,?
2017-03-21 14:21:51.784000,621,24,12,8,-577,24,-623,24,107,24,467,16,-228,8,245,24,1509,24,-23,24,416,16,-38,16,1208,24,521,16,2,-1,?
2017-03-21 14:21:51.792000,614,24,9,8,-581,24,-612,24,112,24,462,16,-240,8,232,24,1489,24,-34,24,398,16,-53,16,1194,24,517,16,2,-1,?
2017-03-21 14:21:51.800000,610,24,7,8,-574,24,-605,24,112,24,465,16,-246,8,229,24,1491,24,-30,24,404,16,-56,16,1194,24,523,16,2,-1,?
2017-03-21 14:21:51.808000,610,24,8,8,-570,24,-609,24,111,24,470,16,-232,8,238,24,1506,24,-18,24,416,16,-45,16,1203,24,525,16,2,-1,?
2017-03-21 14:21:51.816000,609,24,5,8,-576,24,-614,24,110,24,467,16,-218,8,247,24,1507,24,-21,24,405,16,-44,16,1197,24,524,16,2,-1,?
2017-03-21 14:21:51.824000,610,24,8,8,-574,24,-617,24,107,24,469,16,-236,8,232,24,1493,24,-37,24,400,16,-60,16,1189,24,527,16,2,-1,?
2017-03-21 14:21:51.840000,612,24,9,8,-577,24,-616,24,109,24,468,16,-242,8,228,24,1492,24,-40,24,401,16,-63,16,1183,24,520,16,2,-1,?
2017-03-21 14:21:51.841000,611,24,6,8,-579,24,-618,24,116,24,466,16,-231,8,237,24,1499,24,-33,24,405,16,-49,16,1191,24,515,16,2,-1,?
2017-03-21 14:21:51.847000,609,24,6,8,-578,24,-616,24,118,24,466,16,-224,8,244,24,1506,24,-18,24,411,16,-36,16,1203,24,518,16,2,-1,?
2017-03-21 14:21:51.855000,611,24,6,8,-576,24,-609,24,112,24,462,16,-223,8,247,24,1506,24,-14,24,415,16,-40,16,1199,24,521,16,2,-1,?
2017-03-21 14:21:51.863000,613,24,8,8,-570,24,-612,24,112,24,465,16,-242,8,226,24,1489,24,-37,24,408,16,-60,16,1192,24,520,16,2,-1,?
2017-03-21 14:21:51.870000,607,24,7,8,-577,24,-614,24,115,24,469,16,-247,8,223,24,1487,24,-48,24,388,16,-63,16,1184,24,515,16,2,-1,?
2017-03-21 14:21:51.878000,610,24,6,8,-578,24,-612,24,117,24,469,16,-234,8,242,24,1502,24,-28,24,400,16,-49,16,1195,24,519,16,2,-1,?
2017-03-21 14:21:51.886000,620,24,9,8,-573,24,-610,24,114,24,469,16,-230,8,249,24,1508,24,-15,24,421,16,-43,16,1206,24,522,16,2,-1,?
2017-03-21 14:21:51.894000,616,24,5,8,-583,24,-613,24,107,24,469,16,-230,8,240,24,1504,24,-28,24,409,16,-48,16,1192,24,518,16,2,-1,?
2017-03-21 14:21:51.902000,608,24,8,8,-581,24,-614,24,109,24,476,16,-243,8,222,24,1492,24,-45,24,396,16,-63,16,1185,24,522,16,2,-1,?
2017-03-21 14:21:51.910000,613,24,12,8,-574,24,-608,24,116,24,469,16,-240,8,226,24,1492,24,-39,24,397,16,-68,16,1183,24,525,16,2,-1,?
2017-03-21 14:21:51.917000,617,0,8,8,-579,24,-612,24,116,24,464,16,-222,8,243,24,1511,24,-19,24,413,16,-47,16,1197,24,527,16,2,-1,?
2017-03-21 14:21:51.925000,614,0,8,0,-577,24,-619,24,115,24,472,16,-222,8,242,24,1516,24,-19,24,420,16,-34,16,1213,24,529,16,2,-1,?
2017-03-21 14:21:51.934000,611,0,5,0,-577,24,-613,24,115,24,467,16,-231,8,235,24,1501,24,-35,24,400,16,-52,16,1192,24,525,24,2,-1,?
2017-03-21 14:21:51.941000,614,0,1,0,-575,24,-614,24,112,24,463,16,-253,8,221,24,1486,24,-47,24,392,16,-72,16,1176,24,523,24,2,-1,?
2017-03-21 14:21:51.949000,613,0,6,0,-575,24,-618,0,110,24,464,16,-247,8,230,24,1498,24,-36,24,401,16,-61,16,1190,24,522,24,2,-1,?
2017-03-21 14:21:51.957000,609,0,13,0,-575,24,-614,0,112,0,468,16,-224,8,253,24,1512,24,-18,24,410,16,-38,16,1210,24,525,24,2,-1,?
2017-03-21 14:21:51.965000,611,0,11,0,-570,24,-610,0,118,0,470,16,-235,8,238,24,1497,24,-27,24,410,16,-45,16,1206,24,530,24,2,-1,?
2017-03-21 14:21:51.973000,612,0,3,0,-576,24,-614,0,116,0,464,16,-244,0,228,24,1490,24,-43,24,394,16,-63,16,1186,24,525,24,2,-1,?
2017-03-21 14:21:51.981000,609,0,7,0,-578,24,-622,0,107,0,462,16,-241,0,234,16,1496,24,-37,24,398,16,-62,16,1191,24,521,24,2,-1,?
2017-03-21 14:21:51.989000,611,0,10,0,-577,24,-618,0,109,0,466,16,-229,0,241,16,1504,16,-24,24,412,16,-52,16,1204,24,522,24,2,-1,?
2017-03-21 14:21:51.997000,617,0,0,0,-576,24,-613,0,114,0,468,16,-219,0,250,16,1509,16,-22,0,411,16,-47,16,1202,24,520,24,2,-1,?
2017-03-21 14:21:52.004000,619,0,-3,0,-574,24,-619,0,117,0,466,16,-234,0,237,16,1496,16,-35,0,403,16,-54,16,1197,24,520,24,2,-1,?
2017-03-21 14:21:52.012000,613,0,3,0,-580,24,-616,0,115,0,463,16,-245,0,225,16,1487,16,-43,0,391,16,-61,24,1189,24,521,24,2,-1,?
2017-03-21 14:21:52.019000,608,0,11,0,-574,24,-611,0,108,0,467,16,-242,0,229,16,1494,16,-31,0,402,16,-59,24,1192,24,523,24,2,-1,?
2017-03-21 14:21:52.027000,613,0,13,0,-569,24,-611,0,111,0,470,16,-229,0,243,16,1505,16,-17,16,419,16,-48,24,1199,24,526,24,2,-1,?
2017-03-21 14:21:52.036000,614,0,9,0,-581,24,-613,0,117,0,467,16,-217,0,251,16,1510,16,-20,16,412,24,-43,24,1199,24,525,24,2,-1,?
2017-03-21 14:21:52.043000,611,0,10,0,-581,24,-617,0,113,0,468,16,-237,0,230,16,1493,16,-39,16,400,24,-59,24,1195,24,523,24,2,-1,?
2017-03-21 14:21:52.051000,609,0,9,0,-580,24,-617,0,107,0,465,16,-245,0,228,16,1484,16,-39,16,391,24,-63,24,1184,24,517,24,2,-1,?
2017-03-21 14:21:52.059000,608,0,9,0,-578,24,-617,0,110,0,462,16,-226,0,248,16,1501,16,-22,16,408,24,-44,24,1197,24,521,24,2,-1,?
2017-03-21 14:21:52.066000,611,0,12,0,-577,24,-616,0,116,0,469,16,-226,0,248,16,1510,16,-23,16,421,24,-44,24,1214,24,525,24,2,-1,?
2017-03-21 14:21:52.074000,613,0,8,0,-583,24,-616,0,116,0,468,16,-237,0,237,16,1498,16,-33,16,396,24,-61,24,1197,24,518,24,2,-1,?
2017-03-21 14:21:52.082000,609,0,7,0,-578,24,-620,0,111,0,465,16,-248,0,223,16,1482,16,-40,16,391,24,-61,24,1189,24,518,24,2,-1,?
2017-03-21 14:21:52.089000,608,0,8,0,-576,24,-615,0,113,0,463,16,-240,0,232,16,1496,16,-35,16,402,24,-51,24,1191,24,519,24,2,-1,?
2017-03-21 14:21:52.098000,610,0,9,0,-578,24,-610,0,121,0,466,16,-221,0,252,16,1521,16,-23,16,409,24,-47,24,1194,24,523,24,2,-1,?
2017-03-21 14:21:52.105000,611,0,9,0,-575,24,-609,0,117,0,473,16,-222,0,244,16,1510,16,-22,16,417,24,-47,24,1203,24,523,24,2,-1,?
2017-03-21 14:21:52.114000,608,0,8,0,-582,24,-611,0,108,0,472,16,-234,0,230,16,1489,16,-36,16,404,24,-55,24,1197,24,516,24,2,-1,?
2017-03-21 14:21:52.122000,611,0,9,0,-583,24,-615,0,114,0,470,16,-253,0,218,16,1483,16,-44,16,397,24,-67,24,1191,24,518,24,2,-1,?
2017-03-21 14:21:52.128000,616,0,7,0,-576,24,-614,0,117,0,465,16,-239,0,234,16,1498,16,-29,16,406,24,-57,24,1192,24,519,24,2,-1,?
2017-03-21 14:21:52.136000,613,0,8,0,-571,24,-612,0,113,0,462,16,-216,0,255,16,1509,16,-16,16,411,24,-38,24,1195,24,520,24,2,-1,?
2017-03-21 14:21:52.145000,610,0,14,0,-574,24,-614,0,116,0,468,16,-236,0,237,16,1498,16,-31,16,406,24,-45,24,1201,24,523,24,2,-1,?
2017-03-21 14:21:52.153000,607,0,12,0,-585,24,-613,0,116,0,460,16,-244,0,227,16,1492,16,-42,16,394,24,-60,24,1190,24,519,24,2,-1,?
2017-03-21 14:21:52.161000,610,0,6,0,-577,24,-611,0,110,0,465,16,-229,0,236,16,1498,16,-33,16,401,24,-56,24,1190,24,519,24,2,-1,?
2017-03-21 14:21:52.169000,616,0,8,0,-572,24,-611,0,112,0,476,16,-222,0,247,16,1509,16,-19,16,412,24,-44,24,1203,24,521,24,2,-1,?
2017-03-21 14:21:52.176000,619,0,9,0,-579,24,-610,0,117,0,470,16,-229,0,248,16,1510,16,-15,16,411,24,-42,24,1202,24,520,24,2,-1,?
2017-03-21 14:21:52.183000,613,0,8,0,-574,24,-611,0,114,0,469,16,-246,0,225,16,1494,16,-34,16,401,24,-61,24,1188,24,521,24,2,-1,?
2017-03-21 14:21:52.191000,601,0,5,0,-576,24,-610,0,110,0,469,16,-242,0,220,16,1489,16,-47,16,383,24,-72,24,1175,24,517,24,2,-1,?
2017-03-21 14:21:52.199000,603,0,6,0,-581,24,-612,0,111,0,473,16,-229,0,236,16,1499,16,-31,16,394,24,-56,24,1190,24,522,24,2,-1,?
2017-03-21 14:21:52.207000,614,0,10,0,-577,24,-611,0,115,0,474,16,-223,0,248,16,1512,16,-15,16,413,24,-38,24,1209,24,531,24,2,-1,?
2017-03-21 14:21:52.215000,611,0,6,0,-577,24,-612,0,114,0,465,16,-225,0,253,16,1515,16,-19,16,407,24,-44,24,1201,24,526,24,2,-1,?
2017-03-21 14:21:52.222000,604,0,8,0,-578,24,-619,0,112,0,465,16,-245,0,231,16,1497,16,-39,16,398,24,-66,24,1185,24,519,24,2,-1,?
2017-03-21 14:21:52.230000,607,0,11,0,-583,24,-616,0,114,0,464,16,-244,0,223,16,1492,16,-37,16,396,24,-67,24,1177,24,522,24,2,-1,?
2017-03-21 14:21:52.238000,613,0,10,0,-581,24,-614,0,113,0,466,16,-225,0,246,16,1511,16,-19,16,412,24,-48,24,1195,24,525,24,2,-1,?
2017-03-21 14:21:52.247000,617,0,11,0,-571,24,-616,0,114,0,471,16,-220,0,248,16,1512,16,-18,16,423,24,-40,24,1209,24,521,24,2,-1,?
2017-03-21 14:21:52.254000,613,0,9,0,-574,24,-614,0,115,0,467,16,-226,0,235,16,1497,16,-35,16,402,24,-52,24,1193,24,522,24,2,-1,?
2017-03-21 14:21:52.261000,608,0,5,0,-575,24,-615,0,111,0,466,16,-250,0,219,16,1483,16,-47,16,392,24,-71,24,1186,24,531,24,2,-1,?
2017-03-21 14:21:52.269000,611,0,5,0,-578,24,-616,0,111,0,466,16,-245,0,229,16,1490,16,-34,16,404,24,-64,24,1194,24,525,24,2,-1,?
2017-03-21 14:21:52.277000,620,0,9,0,-580,24,-617,0,114,0,466,16,-218,0,253,16,1511,16,-15,16,413,24,-38,24,1210,24,519,24,2,-1,?
2017-03-21 14:21:52.285000,615,0,13,0,-575,24,-619,0,116,0,471,16,-229,0,248,16,1508,16,-22,16,411,24,-42,24,1210,24,527,24,2,-1,?
2017-03-21 14:21:52.293000,601,0,9,0,-576,24,-615,0,110,0,468,16,-240,0,240,16,1496,16,-33,16,395,24,-63,24,1187,24,524,24,2,-1,?
2017-03-21 14:21:52.301000,607,0,12,0,-570,24,-619,0,111,0,467,16,-247,0,226,16,1489,16,-33,16,399,24,-69,24,1186,24,521,24,2,-1,?
2017-03-21 14:21:52.309000,617,0,13,0,-572,24,-619,0,116,0,467,16,-240,0,231,16,1495,16,-23,16,410,24,-54,24,1200,24,523,24,2,-1,?
2017-03-21 14:21:52.316000,617,0,3,0,-583,24,-613,0,111,0,465,16,-222,0,254,16,1511,16,-19,16,411,24,-43,24,1201,24,527,24,2,-1,?
2017-03-21 14:21:52.324000,616,0,2,0,-581,24,-616,0,107,0,469,16,-229,0,239,16,1503,16,-32,16,406,24,-57,24,1196,24,527,24,2,-1,?
2017-03-21 14:21:52.333000,612,0,7,0,-579,24,-616,0,109,0,466,16,-236,0,224,16,1489,16,-35,16,394,24,-64,24,1188,24,519,24,2,-1,?
2017-03-21 14:21:52.340000,613,0,9,0,-574,24,-614,0,113,0,466,16,-234,0,230,16,1489,16,-28,16,405,24,-54,24,1193,24,518,24,2,-1,?
2017-03-21 14:21:52.348000,618,0,9,0,-573,24,-615,0,115,0,469,16,-223,0,243,16,1501,16,-17,16,421,24,-44,24,1203,24,521,24,2,-1,?
2017-03-21 14:21:52.356000,612,0,7,0,-577,24,-615,0,116,0,468,16,-210,0,250,16,1512,16,-16,16,410,24,-47,24,1197,24,525,24,2,-1,?
2017-03-21 14:21:52.364000,606,0,10,0,-574,24,-614,0,114,0,467,16,-230,0,233,16,1497,16,-36,16,399,24,-62,24,1190,24,528,24,2,-1,?
2017-03-21 14:21:52.372000,609,0,9,0,-579,24,-610,0,109,0,464,16,-238,0,230,16,1489,16,-46,16,395,24,-59,24,1188,24,520,24,2,-1,?
2017-03-21 14:21:52.380000,612,0,6,0,-580,24,-610,0,112,0,467,16,-223,0,243,16,1501,16,-31,16,410,24,-46,24,1204,24,518,24,2,-1,?
2017-03-21 14:21:52.388000,613,0,10,0,-576,24,-610,0,119,0,473,16,-216,0,246,16,1507,16,-18,16,419,24,-44,24,1207,24,525,24,2,-1,?
2017-03-21 14:21:52.395000,610,0,9,0,-580,24,-612,0,114,0,472,16,-221,0,243,16,1502,16,-24,16,401,24,-50,24,1187,24,523,24,2,-1,?
2017-03-21 14:21:52.403000,606,0,5,0,-576,24,-616,0,108,0,466,16,-235,0,229,16,1492,16,-42,16,395,24,-60,24,1191,24,519,24,2,-1,?
2017-03-21 14:21:52.411000,609,0,5,0,-575,24,-614,0,110,0,458,16,-230,0,234,16,1496,16,-39,16,397,24,-61,24,1199,24,517,24,2,-1,?
2017-03-21 14:21:52.418000,618,16,11,0,-575,24,-614,0,114,0,466,16,-220,0,248,16,1508,16,-21,16,409,24,-50,24,1198,24,526,24,2,-1,?
2017-03-21 14:21:52.427000,620,16,13,0,-573,24,-617,0,115,0,476,16,-229,0,239,16,1507,16,-22,16,419,24,-48,24,1201,24,530,24,2,-1,?
2017-03-21 14:21:52.433000,609,16,6,0,-580,24,-617,0,112,0,464,16,-232,0,234,16,1496,16,-31,16,400,24,-56,24,1194,24,519,0,2,-1,?
2017-03-21 14:21:52.442000,603,16,6,0,-576,0,-619,0,107,0,464,16,-242,0,224,16,1487,16,-38,16,386,24,-65,24,1189,24,520,0,2,-1,?
2017-03-21 14:21:52.449000,609,16,5,0,-575,0,-617,8,108,0,469,16,-241,0,224,16,1499,16,-34,16,394,24,-65,24,1190,24,520,0,2,-1,?
2017-03-21 14:21:52.458000,615,16,4,0,-582,0,-613,8,111,0,464,16,-224,0,244,16,1513,16,-19,16,412,24,-50,24,1200,24,518,0,2,-1,?
2017-03-21 14:21:52.465000,610,16,10,0,-577,0,-613,8,114,0,467,24,-227,0,243,16,1506,16,-23,16,417,24,-45,24,1203,24,522,0,2,-1,?
2017-03-21 14:21:52.473000,606,16,9,0,-579,0,-614,8,116,0,465,24,-235,8,235,16,1496,16,-39,16,397,24,-60,24,1183,24,520,0,2,-1,?
2017-03-21 14:21:52.481000,612,16,11,0,-581,0,-615,8,116,0,468,24,-240,8,236,0,1496,16,-41,16,399,24,-65,24,1185,24,520,0,2,-1,?
2017-03-21 14:21:52.489000,613,16,13,0,-576,0,-610,8,117,0,473,24,-231,8,246,0,1509,8,-30,16,409,24,-51,24,1199,24,523,0,2,-1,?
2017-03-21 14:21:52.496000,611,16,5,0,-574,0,-608,8,119,0,469,24,-218,8,250,0,1513,8,-19,8,409,24,-45,24,1198,24,526,0,2,-1,?
2017-03-21 14:21:52.504000,612,16,4,0,-576,0,-617,8,114,0,468,24,-231,8,232,0,1494,8,-28,8,405,0,-57,24,1196,24,526,0,2,-1,?
2017-03-21 14:21:52.512000,608,16,6,0,-579,0,-619,8,109,0,466,24,-241,8,228,0,1486,8,-43,8,388,0,-67,16,1182,24,520,0,2,-1,?
2017-03-21 14:21:52.520000,605,16,2,0,-577,0,-613,8,110,0,467,24,-239,8,230,0,1500,8,-41,8,395,0,-60,16,1188,24,523,0,2,-1,?
2017-03-21 14:21:52.528000,611,16,3,0,-576,0,-609,8,109,0,469,24,-225,8,243,0,1513,8,-19,8,416,0,-45,16,1209,24,526,0,2,-1,?
2017-03-21 14:21:52.536000,612,16,5,0,-580,0,-607,8,109,0,463,24,-213,8,260,0,1513,8,-11,8,414,24,-38,16,1207,24,518,0,2,-1,?
2017-03-21 14:21:52.544000,611,16,6,0,-579,0,-610,8,115,0,461,24,-240,8,235,0,1493,8,-36,8,404,24,-55,8,1195,24,516,0,2,-1,?
2017-03-21 14:21:52.552000,609,16,10,0,-581,0,-613,8,115,0,463,24,-257,8,217,0,1485,8,-44,8,393,24,-66,8,1185,24,523,0,2,-1,?
2017-03-21 14:21:52.560000,608,16,13,0,-579,0,-616,8,108,0,465,24,-239,8,233,0,1500,8,-19,8,407,24,-48,8,1196,24,528,0,2,-1,?
2017-03-21 14:21:52.567000,613,16,8,0,-575,0,-612,8,113,0,468,24,-228,8,247,0,1509,8,-14,8,421,24,-38,8,1206,24,524,0,2,-1,?
2017-03-21 14:21:52.575000,611,16,5,0,-580,0,-612,8,116,0,467,24,-231,8,243,0,1504,8,-33,8,403,24,-56,8,1193,24,518,0,2,-1,?
2017-03-21 14:21:52.582000,607,16,8,0,-574,0,-619,8,109,0,464,24,-246,8,222,0,1488,8,-42,8,396,24,-70,8,1187,24,521,0,2,-1,?
2017-03-21 14:21:52.591000,611,16,7,0,-573,0,-614,8,110,0,465,24,-240,8,225,0,1488,8,-29,8,405,24,-55,8,1193,24,523,0,2,-1,?
2017-03-21 14:21:52.599000,618,16,10,0,-577,0,-613,8,109,0,468,24,-222,8,245,0,1504,8,-17,8,418,24,-37,8,1204,24,524,0,2,-1,?
2017-03-21 14:21:52.606000,619,16,15,0,-576,0,-617,8,107,0,469,24,-228,8,247,0,1504,8,-22,8,414,24,-45,8,1205,24,524,0,2,-1,?
2017-03-21 14:21:52.614000,608,16,9,0,-576,0,-613,8,114,0,465,24,-235,8,239,0,1501,8,-39,8,389,24,-60,8,1189,24,522,0,2,-1,?
2017-03-21 14:21:52.621000,603,16,8,0,-570,0,-617,8,118,0,467,24,-247,8,219,0,1491,8,-46,8,393,24,-66,8,1188,24,523,0,2,-1,?
2017-03-21 14:21:52.629000,608,16,8,0,-577,0,-617,8,114,0,470,24,-243,8,223,0,1491,8,-28,8,409,24,-58,8,1196,24,520,0,2,-1,?
2017-03-21 14:21:52.638000,612,16,8,0,-585,0,-610,8,113,0,468,24,-217,8,253,0,1512,8,-11,8,413,24,-45,8,1204,24,520,0,2,-1,?
2017-03-21 14:21:52.646000,612,16,10,0,-579,0,-610,8,113,0,472,24,-223,8,246,0,1508,8,-23,8,413,24,-48,8,1206,24,528,0,2,-1,?
2017-03-21 14:21:52.652000,610,16,9,0,-578,0,-611,8,106,0,468,24,-241,8,230,0,1487,8,-38,8,400,24,-59,8,1191,24,519,0,2,-1,?
2017-03-21 14:21:52.661000,611,16,10,0,-576,0,-613,8,106,0,464,24,-245,8,228,0,1485,8,-33,8,399,24,-53,8,1196,24,517,0,2,-1,?
2017-03-21 14:21:52.668000,614,16,10,0,-577,0,-611,8,114,0,466,24,-229,8,240,0,1501,8,-18,8,414,24,-42,8,1205,24,523,0,2,-1,?
2017-03-21 14:21:52.676000,615,16,8,0,-579,0,-609,8,112,0,469,24,-219,8,253,0,1506,8,-18,8,413,24,-48,8,1197,24,521,0,2,-1,?
2017-03-21 14:21:52.684000,610,16,12,0,-573,0,-612,8,110,0,468,24,-241,8,238,0,1492,8,-38,8,402,24,-62,8,1197,24,521,0,2,-1,?
2017-03-21 14:21:52.692000,603,16,10,0,-576,0,-611,8,112,0,458,24,-247,8,230,0,1489,8,-46,8,390,24,-64,8,1192,24,517,0,2,-1,?
2017-03-21 14:21:52.699000,608,16,5,0,-580,0,-609,8,113,0,462,24,-238,8,233,0,1498,8,-31,8,402,24,-54,8,1196,24,518,0,2,-1,?
2017-03-21 14:21:52.708000,618,16,11,0,-577,0,-612,8,115,0,473,24,-227,8,240,0,1506,8,-15,8,419,24,-39,8,1209,24,517,0,2,-1,?
2017-03-21 14:21:52.715000,615,16,5,0,-576,0,-617,8,116,0,469,24,-223,8,252,0,1505,8,-13,8,412,24,-39,8,1204,24,521,0,2,-1,?
2017-03-21 14:21:52.724000,609,16,-1,0,-577,0,-616,8,116,0,466,24,-243,8,235,0,1492,8,-37,8,398,24,-64,8,1194,24,528,0,2,-1,?
2017-03-21 14:21:52.732000,610,16,6,0,-581,0,-612,8,114,0,463,24,-241,8,226,0,1496,8,-48,8,388,24,-68,8,1184,24,519,0,2,-1,?
2017-03-21 14:21:52.739000,612,16,11,0,-573,0,-614,8,116,0,466,24,-228,8,241,0,1508,8,-26,8,404,24,-49,8,1192,24,519,0,2,-1,?
2017-03-21 14:21:52.747000,614,16,10,0,-566,0,-613,8,119,0,469,24,-231,8,246,0,1506,8,-19,8,413,24,-45,8,1205,24,525,0,2,-1,?
2017-03-21 14:21:52.755000,612,16,6,0,-586,0,-608,8,115,0,465,24,-229,8,242,0,1497,8,-33,8,394,24,-52,8,1197,24,522,0,2,-1,?
2017-03-21 14:21:52.763000,608,16,7,0,-585,0,-615,8,109,0,471,24,-238,8,225,0,1492,8,-45,8,390,24,-63,8,1189,24,524,0,2,-1,?
2017-03-21 14:21:52.771000,605,16,5,0,-572,0,-617,8,109,0,471,24,-243,8,228,0,1499,8,-41,8,393,24,-67,8,1187,24,527,0,2,-1,?
2017-03-21 14:21:52.779000,609,16,7,0,-575,0,-610,8,113,0,469,24,-230,8,251,0,1507,8,-26,8,408,24,-49,8,1197,24,525,0,2,-1,?
2017-03-21 14:21:52.786000,613,16,14,0,-577,0,-610,8,111,0,474,24,-224,8,252,0,1509,8,-21,8,421,24,-40,8,1205,24,524,0,2,-1,?
2017-03-21 14:21:52.793000,611,16,9,0,-578,0,-615,8,108,0,466,24,-231,8,239,0,1507,8,-30,8,402,24,-55,8,1190,24,521,0,2,-1,?
2017-03-21 14:21:52.801000,611,16,6,0,-577,0,-615,8,110,0,467,24,-247,8,219,0,1490,8,-49,8,387,24,-71,8,1187,24,523,0,2,-1,?
2017-03-21 14:21:52.810000,611,16,8,0,-583,0,-608,8,113,0,472,24,-236,8,227,0,1492,8,-41,8,393,24,-62,8,1193,24,526,0,2,-1,?
2017-03-21 14:21:52.817000,612,16,5,0,-584,0,-607,8,108,0,469,24,-215,8,251,0,1514,8,-16,8,414,24,-41,8,1199,24,528,0,2,-1,?
2017-03-21 14:21:52.825000,612,16,4,0,-574,0,-612,8,109,0,468,24,-230,8,242,0,1505,8,-23,8,416,24,-46,8,1202,24,529,0,2,-1,?
2017-03-21 14:21:52.833000,606,16,3,0,-577,0,-611,8,116,0,463,24,-240,8,229,0,1491,8,-42,8,391,24,-63,8,1186,24,521,0,2,-1,?
2017-03-21 14:21:52.841000,605,16,5,0,-575,0,-609,8,116,0,465,24,-236,8,228,0,1499,8,-38,8,396,24,-60,8,1185,24,522,0,2,-1,?
2017-03-21 14:21:52.849000,610,16,8,0,-571,0,-609,8,115,0,467,24,-225,8,240,0,1514,8,-20,8,415,24,-47,8,1199,24,526,0,2,-1,?
2017-03-21 14:21:52.856000,612,16,5,0,-573,0,-614,8,116,0,465,24,-215,8,250,0,1512,8,-19,8,414,24,-46,8,1202,24,525,0,2,-1,?
2017-03-21 14:21:52.864000,610,16,10,0,-573,0,-620,8,115,0,467,24,-240,8,230,0,1492,8,-36,8,411,24,-56,8,1198,24,525,0,2,-1,?
2017-03-21 14:21:52.871000,607,16,12,0,-580,0,-616,8,108,0,464,24,-250,8,223,0,1486,8,-34,8,404,24,-60,8,1188,24,519,0,2,-1,?
2017-03-21 14:21:52.880000,608,16,7,0,-576,0,-616,8,113,0,469,24,-235,8,232,0,1495,8,-24,8,405,24,-59,8,1189,24,521,0,2,-1,?
2017-03-21 14:21:52.888000,612,16,6,0,-572,0,-614,8,122,0,472,24,-219,8,244,0,1507,8,-19,8,414,24,-50,8,1201,24,526,0,2,-1,?
2017-03-21 14:21:52.896000,610,16,5,0,-573,0,-609,8,112,0,466,24,-212,8,254,0,1515,8,-20,8,409,24,-47,8,1203,24,525,0,2,-1,?
2017-03-21 14:21:52.903000,608,16,4,0,-569,0,-615,8,106,0,467,24,-243,8,225,0,1495,8,-38,8,399,24,-65,8,1196,24,524,0,2,-1,?
2017-03-21 14:21:52.910000,610,16,3,0,-576,0,-614,8,109,0,467,24,-247,8,222,0,1487,8,-41,8,394,24,-62,8,1190,24,520,0,2,-1,?
2017-03-21 14:21:52.918000,611,16,9,0,-576,0,-611,8,112,0,466,24,-223,8,249,0,1506,8,-25,8,410,24,-44,8,1200,24,526,0,2,-1,?
2017-03-21 14:21:52.926000,611,0,11,0,-570,0,-613,8,115,0,468,24,-225,8,248,0,1509,8,-27,8,419,24,-47,8,1203,24,530,0,2,-1,?
2017-03-21 14:21:52.934000,610,0,6,0,-578,0,-613,8,114,0,464,24,-232,8,241,0,1498,8,-36,8,396,24,-59,8,1189,24,520,0,2,-1,?
2017-03-21 14:21:52.942000,606,0,9,0,-578,0,-615,8,110,0,467,24,-244,8,228,0,1484,8,-36,8,396,24,-65,8,1190,24,516,24,2,-1,?
2017-03-21 14:21:52.950000,603,0,9,0,-579,8,-616,8,114,0,469,24,-237,8,231,0,1491,8,-30,8,410,24,-60,8,1194,24,515,24,2,-1,?
2017-03-21 14:21:52.957000,606,0,8,0,-578,8,-618,0,115,0,468,24,-218,8,251,0,1516,8,-23,8,412,24,-44,8,1201,24,522,24,2,-1,?
2017-03-21 14:21:52.965000,615,0,11,0,-573,8,-618,0,110,16,470,24,-220,8,247,0,1514,8,-23,8,414,24,-44,8,1207,24,529,24,2,-1,?
2017-03-21 14:21:52.974000,612,0,9,0,-581,8,-613,0,109,16,468,0,-230,8,233,0,1496,8,-33,8,400,24,-61,8,1194,24,519,24,2,-1,?
2017-03-21 14:21:52.982000,604,0,5,0,-578,8,-616,0,111,16,470,0,-245,16,220,0,1488,8,-42,8,394,24,-68,8,1191,24,520,24,2,-1,?
2017-03-21 14:21:52.989000,609,0,9,0,-571,8,-612,0,113,16,466,0,-234,16,234,16,1498,8,-31,8,396,24,-54,8,1197,24,524,24,2,-1,?
2017-03-21 14:21:52.996000,617,0,9,0,-575,8,-609,0,113,16,462,0,-218,16,253,16,1504,16,-19,8,404,24,-45,8,1206,24,524,24,2,-1,?
2017-03-21 14:21:53.004000,610,0,6,0,-570,8,-616,0,117,16,472,0,-241,16,235,16,1496,16,-30,0,411,24,-55,8,1204,24,531,24,2,-1,?
2017-03-21 14:21:53.012000,604,0,6,0,-583,8,-616,0,113,16,466,0,-242,16,228,16,1498,16,-43,0,383,16,-62,8,1182,24,520,24,2,-1,?
2017-03-21 14:21:53.020000,613,0,13,0,-583,8,-614,0,106,16,463,0,-233,16,236,16,1501,16,-38,0,391,16,-58,24,1194,24,514,24,2,-1,?
2017-03-21 14:21:53.029000,611,0,13,0,-568,8,-616,0,114,16,471,0,-228,16,243,16,1508,16,-20,0,432,16,-50,24,1209,24,529,24,2,-1,?
2017-03-21 14:21:53.036000,608,0,5,0,-581,8,-613,0,121,16,466,0,-219,16,248,16,1516,16,-18,16,416,16,-45,24,1197,24,524,24,2,-1,?
2017-03-21 14:21:53.043000,609,0,5,0,-582,8,-614,0,117,16,467,0,-238,16,228,16,1497,16,-38,16,393,24,-57,24,1196,24,519,24,2,-1,?
2017-03-21 14:21:53.052000,604,0,3,0,-577,8,-611,0,114,16,464,0,-246,16,225,16,1486,16,-42,16,386,24,-68,24,1185,24,523,24,2,-1,?
2017-03-21 14:21:53.060000,607,0,5,0,-580,8,-608,0,114,16,463,0,-241,16,232,16,1496,16,-35,16,396,24,-64,24,1186,24,524,24,2,-1,?
2017-03-21 14:21:53.068000,613,0,8,0,-578,8,-614,0,117,16,467,0,-233,16,240,16,1508,16,-25,16,419,24,-48,24,1207,24,527,24,2,-1,?
2017-03-21 14:21:53.075000,613,0,6,0,-581,8,-615,0,118,16,463,0,-218,16,252,16,1512,16,-18,16,410,24,-40,24,1198,24,524,24,2,-1,?
2017-03-21 14:21:53.082000,610,0,9,0,-574,8,-613,0,112,16,465,0,-239,16,230,16,1495,16,-31,16,396,24,-61,24,1187,24,523,24,2,-1,?
2017-03-21 14:21:53.091000,607,0,9,0,-572,8,-610,0,109,16,468,0,-251,16,223,16,1489,16,-37,16,401,24,-69,24,1189,24,524,24,2,-1,?
2017-03-21 14:21:53.098000,607,0,8,0,-574,8,-614,0,111,16,469,0,-231,16,245,16,1502,16,-22,16,421,24,-42,24,1202,24,527,24,2,-1,?
2017-03-21 14:21:53.107000,611,0,14,0,-570,8,-616,0,115,16,468,0,-221,16,250,16,1507,16,-17,16,423,24,-33,24,1209,24,529,24,2,-1,?
2017-03-21 14:21:53.115000,612,0,12,0,-579,8,-611,0,113,16,464,0,-222,16,240,16,1501,16,-31,16,397,24,-55,24,1195,24,519,24,2,-1,?
2017-03-21 14:21:53.123000,606,0,8,0,-581,8,-618,0,112,16,467,0,-241,16,216,16,1487,16,-44,16,396,24,-70,24,1192,24,520,24,2,-1,?
2017-03-21 14:21:53.129000,604,0,7,0,-575,8,-619,0,116,16,466,0,-238,16,221,16,1492,16,-33,16,402,24,-57,24,1193,24,525,24,2,-1,?
2017-03-21 14:21:53.138000,612,0,7,0,-571,8,-607,0,115,16,468,0,-212,16,253,16,1511,16,-16,16,408,24,-43,24,1199,24,522,24,2,-1,?
2017-03-21 14:21:53.146000,611,0,10,0,-570,8,-603,0,110,16,469,0,-212,16,249,16,1508,16,-23,16,419,24,-50,24,1208,24,524,24,2,-1,?
2017-03-21 14:21:53.153000,600,0,8,0,-579,8,-611,0,108,16,463,0,-225,16,234,16,1496,16,-37,16,402,24,-61,24,1193,24,522,24,2,-1,?
2017-03-21 14:21:53.161000,606,0,10,0,-578,8,-620,0,110,16,467,0,-241,16,226,16,1486,16,-38,16,397,24,-66,24,1183,24,524,24,2,-1,?
2017-03-21 14:21:53.168000,615,0,11,0,-577,8,-615,0,114,16,472,0,-231,16,234,16,1492,16,-27,16,409,24,-55,24,1192,24,526,24,2,-1,?
2017-03-21 14:21:53.177000,608,0,4,0,-580,8,-612,0,113,16,467,0,-213,16,253,16,1509,16,-19,16,411,24,-43,24,1203,24,528,24,2,-1,?
2017-03-21 14:21:53.184000,604,0,3,0,-577,8,-619,0,112,16,461,0,-233,16,240,16,1501,16,-26,16,406,24,-55,24,1197,24,528,24,2,-1,?
2017-03-21 14:21:53.193000,610,0,5,0,-584,8,-616,0,109,16,461,0,-240,16,226,16,1488,16,-31,16,395,24,-64,24,1184,24,521,24,2,-1,?
2017-03-21 14:21:53.200000,614,0,5,0,-582,8,-614,0,111,16,471,0,-234,16,228,16,1493,16,-24,16,408,24,-49,24,1197,24,522,24,2,-1,?
2017-03-21 14:21:53.209000,613,0,7,0,-578,8,-617,0,122,16,473,0,-233,16,241,16,1508,16,-16,16,423,24,-38,24,1205,24,521,24,2,-1,?
2017-03-21 14:21:53.215000,612,0,10,0,-583,8,-612,0,121,16,465,0,-228,16,246,16,1511,16,-22,16,412,24,-47,24,1197,24,522,24,2,-1,?
2017-03-21 14:21:53.223000,611,0,10,0,-580,8,-611,0,113,16,467,0,-240,16,223,16,1493,16,-43,16,402,24,-60,24,1200,24,524,24,2,-1,?
2017-03-21 14:21:53.232000,607,0,7,0,-580,8,-614,0,110,16,469,0,-239,16,226,16,1493,16,-48,16,390,24,-62,24,1193,24,515,24,2,-1,?
2017-03-21 14:21:53.240000,607,0,3,0,-577,8,-616,0,112,16,470,0,-227,16,245,16,1508,16,-35,16,400,24,-54,24,1192,24,524,24,2,-1,?
2017-03-21 14:21:53.247000,612,0,7,0,-568,8,-610,0,113,16,472,0,-225,16,245,16,1507,16,-24,16,418,24,-43,24,1204,24,531,24,2,-1,?
2017-03-21 14:21:53.255000,610,0,9,0,-571,8,-611,0,110,16,471,0,-225,16,245,16,1498,16,-23,16,407,24,-44,24,1201,24,518,24,2,-1,?
2017-03-21 14:21:53.262000,606,0,9,0,-576,8,-620,0,111,16,473,0,-243,16,233,16,1492,16,-42,16,394,24,-63,24,1195,24,520,24,2,-1,?
2017-03-21 14:21:53.270000,607,0,7,0,-578,8,-614,0,115,16,468,0,-240,16,228,16,1503,16,-46,16,395,24,-65,24,1189,24,527,24,2,-1,?
2017-03-21 14:21:53.278000,612,0,9,0,-570,8,-606,0,113,16,464,0,-224,16,242,16,1515,16,-27,16,412,24,-44,24,1195,24,526,24,2,-1,?
2017-03-21 14:21:53.286000,616,0,10,0,-570,8,-610,0,110,16,471,0,-230,16,248,16,1505,16,-22,16,421,24,-41,24,1203,24,524,24,2,-1,?
2017-03-21 14:21:53.294000,611,0,3,0,-585,8,-611,0,111,16,470,0,-237,16,242,16,1492,16,-31,16,401,24,-58,24,1194,24,522,24,2,-1,?
2017-03-21 14:21:53.301000,605,0,5,0,-578,8,-610,0,113,16,466,0,-250,16,224,16,1488,16,-47,16,386,24,-68,24,1192,24,524,24,2,-1,?
2017-03-21 14:21:53.309000,607,0,8,0,-572,8,-610,0,117,16,464,0,-245,16,225,16,1494,16,-40,16,392,24,-57,24,1191,24,522,24,2,-1,?
2017-03-21 14:21:53.317000,611,0,10,0,-580,8,-613,0,116,16,468,0,-224,16,243,16,1503,16,-12,16,415,24,-39,24,1196,24,520,24,2,-1,?
2017-03-21 14:21:53.326000,609,0,12,0,-578,8,-613,0,113,16,476,0,-223,16,238,16,1503,16,-17,16,418,24,-41,24,1202,24,525,24,2,-1,?
2017-03-21 14:21:53.334000,606,0,5,0,-578,8,-612,0,112,16,466,0,-232,16,231,16,1499,16,-43,16,394,24,-57,24,1186,24,527,24,2,-1,?
2017-03-21 14:21:53.342000,605,0,6,0,-576,8,-616,0,111,16,464,0,-245,16,226,16,1491,16,-43,16,401,24,-66,24,1181,24,526,24,2,-1,?
2017-03-21 14:21:53.349000,605,0,11,0,-573,8,-613,0,113,16,468,0,-237,16,236,16,1500,16,-22,16,415,24,-51,24,1197,24,521,24,2,-1,?
2017-03-21 14:21:53.356000,609,0,8,0,-572,8,-606,0,116,16,466,0,-219,16,253,16,1515,16,-16,16,414,24,-37,24,1206,24,521,24,2,-1,?
2017-03-21 14:21:53.364000,609,0,5,0,-569,8,-610,0,115,16,469,0,-236,16,235,16,1500,16,-33,16,411,24,-54,24,1199,24,527,24,2,-1,?
2017-03-21 14:21:53.372000,604,0,3,0,-577,8,-615,0,112,16,462,0,-243,16,223,16,1490,16,-42,16,394,24,-69,24,1180,24,523,24,2,-1,?
2017-03-21 14:21:53.381000,609,0,6,0,-577,8,-616,0,115,16,463,0,-232,16,232,16,1497,16,-33,16,400,24,-61,24,1188,24,522,24,2,-1,?
2017-03-21 14:21:53.388000,617,0,11,0,-571,8,-612,0,120,16,471,0,-220,16,246,16,1505,16,-24,16,418,24,-49,24,1201,24,525,24,2,-1,?
2017-03-21 14:21:53.395000,612,0,9,0,-572,8,-607,0,112,16,467,0,-211,16,257,16,1512,16,-25,16,413,24,-46,24,1200,24,526,24,2,-1,?
2017-03-21 14:21:53.404000,607,0,10,0,-573,8,-612,0,107,16,466,0,-232,16,233,16,1498,16,-39,16,403,24,-57,24,1200,24,526,24,2,-1,?
2017-03-21 14:21:53.412000,604,0,10,0,-577,8,-614,0,112,16,463,0,-245,16,221,16,1484,16,-36,16,396,24,-61,24,1190,24,522,24,2,-1,?
2017-03-21 14:21:53.420000,605,0,10,0,-575,8,-613,0,114,16,460,0,-235,16,238,16,1495,16,-20,16,411,24,-42,24,1196,24,525,24,2,-1,?
2017-03-21 14:21:53.428000,614,16,14,0,-576,8,-610,0,110,16,462,0,-225,16,248,16,1507,16,-21,16,425,24,-35,24,1209,24,529,24,2,-1,?
2017-03-21 14:21:53.435000,614,16,11,8,-582,8,-611,0,107,16,465,0,-223,16,245,16,1506,16,-31,16,410,24,-53,24,1200,24,523,24,2,-1,?
2017-03-21 14:21:53.443000,610,16,10,8,-578,8,-615,0,108,16,467,0,-246,16,225,16,1491,16,-39,16,403,24,-68,24,1194,24,524,24,2,-1,?
2017-03-21 14:21:53.451000,608,16,11,8,-579,0,-609,0,110,16,464,0,-245,16,230,16,1488,16,-31,16,404,24,-58,24,1194,24,522,24,2,-1,?
2017-03-21 14:21:53.459000,611,16,4,8,-579,0,-611,0,110,16,468,0,-218,16,252,16,1506,16,-22,16,411,24,-42,24,1200,24,522,24,2,-1,?
2017-03-21 14:21:53.466000,616,16,0,8,-572,0,-612,0,115,16,474,0,-217,16,246,16,1510,16,-25,16,418,24,-43,24,1205,24,523,24,2,-1,?
2017-03-21 14:21:53.474000,611,16,4,8,-581,0,-607,0,117,16,468,0,-231,16,233,16,1498,16,-33,16,399,24,-57,24,1194,24,516,24,2,-1,?
2017-03-21 14:21:53.481000,604,16,12,8,-581,0,-613,0,115,16,467,0,-249,24,217,16,1486,16,-40,16,396,24,-65,24,1191,24,519,24,2,-1,?
2017-03-21 14:21:53.489000,606,16,9,8,-580,0,-615,0,114,16,466,0,-244,24,229,16,1496,16,-32,16,407,24,-53,24,1196,24,522,24,2,-1,?
2017-03-21 14:21:53.497000,615,16,7,8,-577,0,-613,0,117,16,464,0,-222,24,249,16,1514,0,-18,16,413,24,-38,24,1201,24,521,24,2,-1,?
2017-03-21 14:21:53.505000,616,16,11,8,-569,0,-614,0,119,16,466,0,-226,24,234,16,1506,0,-26,16,413,24,-46,24,1204,24,522,24,2,-1,?
2017-03-21 14:21:53.513000,608,16,8,8,-574,0,-610,0,111,16,464,0,-232,24,231,16,1492,0,-39,16,397,0,-60,24,1190,24,518,24,2,-1,?
2017-03-21 14:21:53.520000,609,16,7,8,-574,0,-613,0,110,16,467,0,-234,24,234,16,1492,0,-38,16,400,0,-56,24,1192,24,514,24,2,-1,?
2017-03-21 14:21:53.529000,614,16,10,8,-572,0,-618,0,114,16,472,0,-225,24,235,16,1504,0,-24,16,411,0,-42,24,1205,0,514,24,2,-1,?
2017-03-21 14:21:53.537000,609,16,10,8,-573,0,-615,0,108,16,469,0,-221,24,246,16,1506,0,-20,8,410,0,-43,24,1202,0,521,24,2,-1,?
2017-03-21 14:21:53.545000,607,16,9,8,-568,0,-612,0,108,16,467,0,-241,24,237,16,1492,0,-35,8,407,24,-58,24,1194,0,522,24,2,-1,?
2017-03-21 14:21:53.552000,610,16,5,8,-577,0,-613,0,112,16,458,0,-242,24,231,16,1492,0,-42,8,394,24,-57,16,1184,0,513,24,2,-1,?
2017-03-21 14:21:53.560000,608,16,7,8,-580,0,-616,0,112,16,460,0,-232,24,236,16,1501,0,-28,8,402,24,-49,16,1192,0,521,24,2,-1,?
2017-03-21 14:21:53.568000,613,16,16,8,-577,0,-609,0,115,16,470,0,-227,24,246,16,1507,0,-15,8,417,24,-42,16,1207,0,528,24,2,-1,?
2017-03-21 14:21:53.575000,620,16,15,8,-577,0,-607,0,118,16,470,0,-222,24,252,16,1507,0,-18,8,414,24,-37,16,1200,0,524,24,2,-1,?
2017-03-21 14:21:53.583000,612,16,8,8,-573,0,-617,0,114,16,473,0,-243,24,228,16,1490,0,-42,8,400,24,-54,16,1188,0,525,24,2,-1,?
2017-03-21 14:21:53.592000,599,16,5,8,-576,0,-613,0,112,16,467,0,-247,24,221,16,1487,0,-47,8,385,24,-70,16,1182,0,519,24,2,-1,?
2017-03-21 14:21:53.600000,606,16,9,8,-578,0,-609,0,114,16,462,0,-229,24,237,16,1505,0,-27,8,405,24,-55,16,1197,0,524,24,2,-1,?
2017-03-21 14:21:53.606000,621,16,13,8,-577,0,-614,0,113,16,470,0,-225,24,241,16,1508,0,-25,8,421,24,-39,16,1206,0,529,24,2,-1,?
2017-03-21 14:21:53.614000,612,16,7,8,-578,0,-613,0,107,16,469,0,-230,24,240,16,1498,0,-32,8,405,24,-48,16,1194,0,522,24,2,-1,?
2017-03-21 14:21:53.623000,600,16,8,8,-576,0,-608,0,107,16,466,0,-248,24,224,16,1484,0,-42,8,396,24,-69,16,1190,0,520,24,2,-1,?
2017-03-21 14:21:53.631000,607,16,11,8,-581,0,-609,0,110,16,465,0,-246,24,224,16,1491,0,-36,8,404,24,-60,16,1188,0,519,24,2,-1,?
2017-03-21 14:21:53.639000,614,16,9,8,-576,0,-616,0,113,16,469,0,-226,24,248,16,1510,0,-15,8,422,24,-34,16,1194,0,522,24,2,-1,?
2017-03-21 14:21:53.646000,612,16,10,8,-568,0,-613,0,117,16,471,0,-223,24,251,16,1509,0,-19,8,417,24,-39,16,1208,0,522,24,2,-1,?
2017-03-21 14:21:53.654000,608,16,8,8,-576,0,-610,0,113,16,460,0,-229,24,237,16,1498,0,-37,8,397,24,-56,16,1196,0,518,24,2,-1,?
2017-03-21 14:21:53.662000,609,16,9,8,-581,0,-618,0,110,16,463,0,-251,24,213,16,1487,0,-42,8,393,24,-66,16,1187,0,524,24,2,-1,?
2017-03-21 14:21:53.670000,612,16,12,8,-577,0,-617,0,113,16,466,0,-246,24,222,16,1492,0,-29,8,401,24,-63,16,1193,0,530,24,2,-1,?
2017-03-21 14:21:53.678000,612,16,9,8,-571,0,-613,0,117,16,465,0,-214,24,252,16,1509,0,-16,8,416,24,-44,16,1203,0,530,24,2,-1,?
2017-03-21 14:21:53.686000,614,16,7,8,-570,0,-613,0,115,16,469,0,-219,24,240,16,1503,0,-30,8,415,24,-45,16,1202,0,525,24,2,-1,?
2017-03-21 14:21:53.693000,609,16,4,8,-576,0,-610,0,110,16,468,0,-237,24,227,16,1492,0,-42,8,396,24,-60,16,1184,0,523,24,2,-1,?
2017-03-21 14:21:53.701000,605,16,5,8,-573,0,-613,0,111,16,468,0,-241,24,234,16,1493,0,-30,8,398,24,-59,16,1185,0,528,24,2,-1,?
2017-03-21 14:21:53.709000,611,16,8,8,-575,0,-616,0,109,16,469,0,-228,24,245,16,1505,0,-16,8,407,24,-48,16,1201,0,525,24,2,-1,?
2017-03-21 14:21:53.717000,614,16,8,8,-581,0,-618,0,107,16,467,0,-217,24,253,16,1516,0,-20,8,407,24,-46,16,1204,0,516,24,2,-1,?
2017-03-21 14:21:53.725000,611,16,10,8,-579,0,-617,0,112,16,466,0,-238,24,236,16,1497,0,-36,8,407,24,-57,16,1197,0,518,24,2,-1,?
2017-03-21 14:21:53.732000,604,16,10,8,-582,0,-611,0,114,16,462,0,-244,24,229,16,1484,0,-37,8,396,24,-62,16,1188,0,519,24,2,-1,?
2017-03-21 14:21:53.739000,608,16,11,8,-579,0,-610,0,112,16,466,0,-236,24,233,16,1495,0,-28,8,402,24,-51,16,1198,0,521,24,2,-1,?
2017-03-21 14:21:53.748000,618,16,14,8,-574,0,-613,0,111,16,466,0,-232,24,239,16,1513,0,-23,8,421,24,-38,16,1208,0,523,24,2,-1,?
2017-03-21 14:21:53.755000,616,16,11,8,-579,0,-615,0,111,16,463,0,-228,24,249,16,1516,0,-23,8,411,24,-43,16,1203,0,526,24,2,-1,?
2017-03-21 14:21:53.764000,609,16,11,8,-578,0,-618,0,114,16,470,0,-241,24,233,16,1494,0,-39,8,397,24,-61,16,1199,0,530,24,2,-1,?
2017-03-21 14:21:53.772000,607,16,11,8,-579,0,-615,0,114,16,466,0,-239,24,226,16,1487,0,-41,8,394,24,-58,16,1189,0,519,24,2,-1,?
2017-03-21 14:21:53.779000,611,16,12,8,-579,0,-611,0,112,16,463,0,-224,24,244,16,1507,0,-22,8,412,24,-43,16,1196,0,518,24,2,-1,?
2017-03-21 14:21:53.787000,615,16,15,8,-577,0,-612,0,114,16,469,0,-228,24,247,16,1513,0,-20,8,419,24,-45,16,1209,0,520,24,2,-1,?
2017-03-21 14:21:53.795000,609,16,6,8,-578,0,-616,0,113,16,465,0,-233,24,239,16,1499,0,-29,8,395,24,-54,16,1193,0,515,24,2,-1,?
2017-03-21 14:21:53.803000,603,16,-2,8,-568,0,-619,0,112,16,466,0,-243,24,228,16,1487,0,-34,8,392,24,-64,16,1190,0,519,24,2,-1,?
2017-03-21 14:21:53.811000,608,16,3,8,-574,0,-613,0,117,16,468,0,-232,24,238,16,1499,0,-34,8,393,24,-63,16,1198,0,515,24,2,-1,?
2017-03-21 14:21:53.818000,610,16,12,8,-579,0,-614,0,119,16,463,0,-220,24,250,16,1513,0,-21,8,401,24,-46,16,1200,0,519,24,2,-1,?
2017-03-21 14:21:53.826000,607,16,12,8,-571,0,-620,0,116,16,463,0,-228,24,240,16,1506,0,-20,8,421,24,-37,16,1203,0,528,24,2,-1,?
2017-03-21 14:21:53.834000,604,16,5,8,-577,0,-609,0,111,16,463,0,-227,24,235,16,1492,0,-37,8,402,24,-54,16,1194,0,523,24,2,-1,?
2017-03-21 14:21:53.842000,604,16,11,8,-573,0,-605,0,109,16,468,0,-239,24,230,16,1489,0,-45,8,393,24,-67,16,1189,0,521,24,2,-1,?
2017-03-21 14:21:53.850000,607,16,17,8,-574,0,-611,0,111,16,467,0,-242,24,236,16,1502,0,-27,8,407,24,-51,16,1191,0,518,24,2,-1,?
2017-03-21 14:21:53.858000,609,16,10,8,-586,0,-614,0,110,16,465,0,-225,24,248,16,1508,0,-14,8,412,24,-40,16,1197,0,514,24,2,-1,?
2017-03-21 14:21:53.865000,609,16,8,8,-577,0,-614,0,112,16,474,0,-234,24,232,16,1497,0,-29,8,407,24,-56,16,1199,0,525,24,2,-1,?
2017-03-21 14:21:53.872000,606,16,7,8,-576,0,-611,0,116,16,472,0,-242,24,231,16,1498,0,-43,8,387,24,-65,16,1184,0,524,24,2,-1,?
2017-03-21 14:21:53.881000,609,16,6,8,-579,0,-614,0,113,16,472,0,-240,24,241,16,1502,0,-38,8,399,24,-56,16,1189,0,518,24,2,-1,?
2017-03-21 14:21:53.888000,614,16,8,8,-576,0,-615,0,113,16,474,0,-227,24,245,16,1501,0,-21,8,416,24,-41,16,1200,0,528,24,2,-1,?
2017-03-21 14:21:53.896000,612,16,9,8,-581,0,-612,0,113,16,469,0,-215,24,249,16,1507,0,-13,8,411,24,-35,16,1194,0,526,24,2,-1,?
2017-03-21 14:21:53.904000,608,16,12,8,-575,0,-617,0,111,16,468,0,-236,24,231,16,1496,0,-34,8,407,24,-54,16,1193,0,521,24,2,-1,?
2017-03-21 14:21:53.911000,606,16,11,8,-575,0,-615,0,110,16,462,0,-246,24,228,16,1484,0,-46,8,391,24,-65,16,1183,0,526,24,2,-1,?
2017-03-21 14:21:53.919000,609,16,8,8,-576,0,-613,0,110,16,464,0,-238,24,236,16,1492,0,-32,8,393,24,-55,16,1188,0,528,24,2,-1,?
2017-03-21 14:21:53.927000,611,16,8,8,-574,0,-613,0,114,16,471,0,-227,24,243,16,1512,0,-14,8,420,24,-44,16,1204,0,524,24,2,-1,?
2017-03-21 14:21:53.935000,611,16,8,8,-581,0,-610,0,116,16,466,0,-218,24,258,16,1515,0,-16,8,421,24,-44,16,1199,0,524,24,2,-1,?
2017-03-21 14:21:53.943000,610,16,8,16,-578,0,-612,0,112,16,462,0,-245,24,231,16,1487,0,-39,8,403,24,-60,16,1192,0,526,24,2,-1,?
2017-03-21 14:21:53.950000,606,16,4,16,-576,0,-614,0,111,16,462,0,-250,24,216,16,1481,0,-38,8,394,24,-61,16,1188,0,516,16,2,-1,?
2017-03-21 14:21:53.958000,610,16,6,16,-575,24,-616,0,116,16,467,0,-225,24,242,16,1500,0,-16,8,415,24,-39,16,1198,0,519,16,2,-1,?
2017-03-21 14:21:53.966000,613,16,14,16,-576,24,-616,8,117,16,469,0,-224,24,255,16,1506,0,-18,8,426,24,-39,16,1203,0,527,16,2,-1,?
2017-03-21 14:21:53.974000,608,16,11,16,-585,24,-614,8,109,24,463,0,-231,24,245,16,1502,0,-33,8,401,24,-60,16,1189,0,520,16,2,-1,?
2017-03-21 14:21:53.982000,606,16,10,16,-581,24,-616,8,108,24,465,8,-246,24,222,16,1482,0,-41,8,392,24,-64,16,1189,0,519,16,2,-1,?
2017-03-21 14:21:53.991000,607,16,13,16,-580,24,-614,8,115,24,467,8,-245,24,226,16,1482,0,-31,8,401,24,-51,16,1194,0,519,16,2,-1,?
2017-03-21 14:21:53.998000,606,16,11,16,-577,24,-614,8,116,24,470,8,-221,24,249,16,1514,0,-16,8,414,24,-39,16,1203,0,525,16,2,-1,?
2017-03-21 14:21:54.006000,608,16,16,16,-572,24,-615,8,114,24,473,8,-221,24,244,16,1515,8,-22,8,419,24,-44,16,1205,0,529,16,2,-1,?
2017-03-21 14:21:54.014000,605,16,14,16,-577,24,-612,8,114,24,465,8,-240,24,235,16,1493,8,-37,8,397,24,-55,16,1189,0,517,16,2,-1,?
2017-03-21 14:21:54.021000,605,16,5,16,-574,24,-613,8,117,24,466,8,-254,24,227,16,1484,8,-40,8,392,16,-56,16,1190,0,517,16,2,-1,?
2017-03-21 14:21:54.030000,615,16,5,16,-574,24,-617,8,115,24,469,8,-234,24,234,16,1491,8,-29,8,405,16,-49,8,1199,0,524,16,2,-1,?
2017-03-21 14:21:54.037000,618,16,13,16,-578,24,-618,8,110,24,466,8,-215,24,249,16,1506,8,-21,8,411,16,-46,8,1200,16,525,16,2,-1,?
2017-03-21 14:21:54.045000,613,16,15,16,-577,24,-615,8,109,24,467,8,-234,24,233,16,1502,8,-34,24,406,16,-53,8,1197,16,523,16,2,-1,?
2017-03-21 14:21:54.053000,608,16,4,16,-579,24,-616,8,113,24,467,8,-241,24,221,16,1489,8,-39,24,395,24,-60,8,1185,16,521,16,2,-1,?
2017-03-21 14:21:54.061000,606,16,4,16,-573,24,-619,8,113,24,467,8,-237,24,229,16,1489,8,-26,24,406,24,-53,8,1192,16,524,16,2,-1,?
2017-03-21 14:21:54.068000,612,16,15,16,-570,24,-613,8,109,24,466,8,-229,24,245,16,1504,8,-16,24,416,24,-42,8,1203,16,522,16,2,-1,?
2017-03-21 14:21:54.076000,613,16,11,16,-575,24,-614,8,111,24,466,8,-224,24,247,16,1510,8,-19,24,402,24,-46,8,1196,16,523,16,2,-1,?
2017-03-21 14:21:54.083000,610,16,3,16,-574,24,-623,8,118,24,468,8,-250,24,220,16,1493,8,-37,24,398,24,-58,8,1191,16,524,16,2,-1,?
2017-03-21 14:21:54.092000,606,16,4,16,-576,24,-616,8,112,24,459,8,-252,24,222,16,1492,8,-46,24,394,24,-57,8,1186,16,512,16,2,-1,?
2017-03-21 14:21:54.099000,611,16,9,16,-572,24,-609,8,105,24,460,8,-228,24,242,16,1505,8,-35,24,402,24,-49,8,1193,16,509,16,2,-1,?
2017-03-21 14:21:54.107000,614,16,13,16,-570,24,-610,8,111,24,469,8,-221,24,244,16,1510,8,-21,24,416,24,-44,8,1204,16,516,16,2,-1,?
2017-03-21 14:21:54.115000,606,16,9,16,-577,24,-610,8,113,24,465,8,-228,24,244,16,1503,8,-18,24,411,24,-45,8,1196,16,517,16,2,-1,?
2017-03-21 14:21:54.122000,604,16,9,16,-573,24,-612,8,111,24,472,8,-245,24,226,16,1491,8,-41,24,397,24,-63,8,1192,16,517,16,2,-1,?
2017-03-21 14:21:54.130000,607,16,10,16,-577,24,-613,8,111,24,476,8,-238,24,225,16,1497,8,-48,24,385,24,-66,8,1186,16,514,16,2,-1,?
2017-03-21 14:21:54.139000,608,16,13,16,-580,24,-616,8,109,24,468,8,-225,24,241,16,1507,8,-26,24,405,24,-43,8,1194,16,521,16,2,-1,?
2017-03-21 14:21:54.147000,613,16,14,16,-572,24,-616,8,111,24,469,8,-230,24,241,16,1504,8,-17,24,422,24,-37,8,1209,16,528,16,2,-1,?
2017-03-21 14:21:54.155000,613,16,6,16,-579,24,-613,8,113,24,470,8,-232,24,238,16,1501,8,-29,24,399,24,-52,8,1194,16,521,16,2,-1,?
2017-03-21 14:21:54.162000,608,16,6,16,-582,24,-618,8,112,24,473,8,-247,24,225,16,1491,8,-48,24,387,24,-67,8,1181,16,519,16,2,-1,?
2017-03-21 14:21:54.170000,607,16,9,16,-580,24,-616,8,111,24,469,8,-240,24,231,16,1493,8,-40,24,397,24,-58,8,1185,16,521,16,2,-1,?
2017-03-21 14:21:54.178000,609,16,8,16,-575,24,-609,8,111,24,467,8,-217,24,256,16,1512,8,-12,24,416,24,-38,8,1201,16,522,16,2,-1,?
2017-03-21 14:21:54.186000,606,16,12,16,-573,24,-613,8,115,24,472,8,-225,24,246,16,1512,8,-14,24,417,24,-42,8,1208,16,522,16,2,-1,?
2017-03-21 14:21:54.193000,604,16,8,16,-580,24,-615,8,118,24,469,8,-233,24,230,16,1496,8,-38,24,392,24,-58,8,1186,16,521,16,2,-1,?
2017-03-21 14:21:54.201000,605,16,4,16,-572,24,-610,8,116,24,470,8,-240,24,231,16,1488,8,-45,24,394,24,-66,8,1181,16,524,16,2,-1,?
2017-03-21 14:21:54.209000,607,16,5,16,-568,24,-605,8,115,24,468,8,-235,24,243,16,1501,8,-29,24,410,24,-55,8,1195,16,522,16,2,-1,?
2017-03-21 14:21:54.216000,607,16,8,16,-577,24,-609,8,120,24,465,8,-223,24,252,16,1515,8,-17,24,411,24,-42,8,1203,16,523,16,2,-1,?
2017-03-21 14:21:54.225000,605,16,14,16,-575,24,-611,8,124,24,468,8,-238,24,239,16,1498,8,-30,24,407,24,-50,8,1203,16,524,16,2,-1,?
2017-03-21 14:21:54.233000,602,16,12,16,-573,24,-611,8,114,24,465,8,-241,24,231,16,1489,8,-42,24,396,24,-65,8,1189,16,518,16,2,-1,?
2017-03-21 14:21:54.241000,607,16,8,16,-569,24,-620,8,107,24,466,8,-231,24,231,16,1496,8,-32,24,403,24,-58,8,1195,16,524,16,2,-1,?
2017-03-21 14:21:54.249000,614,16,8,16,-570,24,-615,8,114,24,469,8,-224,24,242,16,1508,8,-19,24,412,24,-41,8,1203,16,528,16,2,-1,?
2017-03-21 14:21:54.256000,610,16,7,16,-581,24,-608,8,114,24,467,8,-219,24,257,16,1518,8,-21,24,409,24,-42,8,1197,16,519,16,2,-1,?
2017-03-21 14:21:54.263000,608,16,6,16,-577,24,-617,8,114,24,470,8,-240,24,235,16,1497,8,-39,24,407,24,-60,8,1196,16,524,16,2,-1,?
2017-03-21 14:21:54.272000,610,16,3,16,-581,24,-620,8,118,24,463,8,-246,24,228,16,1479,8,-42,24,390,24,-60,8,1189,16,523,16,2,-1,?
2017-03-21 14:21:54.280000,611,16,6,16,-582,24,-617,8,115,24,459,8,-233,24,241,16,1494,8,-22,24,402,24,-44,8,1198,16,519,16,2,-1,?
2017-03-21 14:21:54.288000,609,16,11,16,-574,24,-619,8,111,24,466,8,-229,24,245,16,1514,8,-11,24,426,24,-45,8,1208,16,527,16,2,-1,?
2017-03-21 14:21:54.295000,608,16,9,16,-580,24,-615,8,109,24,467,8,-224,24,250,16,1512,8,-27,24,400,24,-55,8,1190,16,520,16,2,-1,?
2017-03-21 14:21:54.302000,610,16,9,16,-578,24,-615,8,111,24,468,8,-245,24,227,16,1489,8,-45,24,395,24,-60,8,1184,16,521,16,2,-1,?
2017-03-21 14:21:54.311000,607,16,9,16,-577,24,-614,8,111,24,468,8,-248,24,227,16,1490,8,-36,24,405,24,-54,8,1189,16,527,16,2,-1,?
2017-03-21 14:21:54.319000,609,16,10,16,-577,24,-613,8,109,24,468,8,-226,24,251,16,1513,8,-23,24,404,24,-44,8,1201,16,525,16,2,-1,?
