Timestamp,F3 Value,F3 Quality,FC5 Value,FC5 Quality,F7 Value,F7 Quality,T7 Value,T7 Quality,P7 Value,P7 Quality,O1 Value,O1 Quality,O2 Value,O2 Quality,P8 Value,P8 Quality,T8 Value,T8 Quality,F8 Value,F8 Quality,AF4 Value,AF4 Quality,FC6 Value,FC6 Quality,F4 Value,F4 Quality,AF3 Value,AF3 Quality,X Value,Y Value,Z Value
2017-03-27 15:10:34.848000,567,0,4,0,-582,0,-467,0,5,0,449,0,-474,0,-387,0,-6938,0,-208,0,314,0,-18,0,1021,0,491,0,2,-5,?
2017-03-27 15:10:34.850000,571,0,0,0,-596,0,-466,0,-6,0,448,0,-482,0,-355,0,-6938,0,-221,0,304,0,-16,0,1021,0,496,0,2,-5,?
2017-03-27 15:10:34.854000,560,0,-1,0,-640,0,-462,0,-35,0,445,0,-499,0,-370,0,-6938,0,-236,0,290,0,-27,0,1014,0,483,0,2,-5,?
2017-03-27 15:10:34.863000,550,0,-2,0,-672,0,-476,0,-43,0,448,0,-519,0,-405,0,-6938,0,-256,0,281,0,-40,0,1009,0,466,0,2,-4,?
2017-03-27 15:10:34.872000,561,0,0,0,-661,0,-478,0,-8,0,439,0,-526,0,-394,0,-6938,0,-246,0,281,0,-34,0,1021,0,475,0,2,-4,?
2017-03-27 15:10:34.879000,567,0,-2,0,-667,0,-460,0,-21,0,420,0,-527,0,-383,0,-6938,0,-238,0,279,0,-26,0,1027,0,477,0,2,-3,?
2017-03-27 15:10:34.888000,569,0,-3,0,-689,0,-464,0,-32,0,427,0,-519,0,-387,0,-6938,0,-242,0,290,0,-22,0,1033,0,472,0,2,-3,?
2017-03-27 15:10:34.894000,593,0,2,0,-665,0,-460,0,37,0,456,0,-492,0,-363,0,-6938,0,-218,0,323,0,-3,0,1056,0,495,0,2,-3,?
2017-03-27 15:10:34.901000,612,0,2,0,-660,0,-423,0,20,0,450,0,-482,0,-358,0,-6938,0,-210,0,328,0,6,0,1063,0,511,0,2,-3,?
2017-03-27 15:10:34.911000,592,0,0,0,-722,0,-427,0,-80,0,425,0,-514,0,-400,0,-6938,0,-241,0,301,0,-15,0,1047,0,488,0,2,-2,?
2017-03-27 15:10:34.918000,583,0,5,0,-767,0,-467,0,-41,0,440,0,-522,0,-397,0,-6938,0,-242,0,301,0,-20,0,1056,0,472,0,2,-2,?
2017-03-27 15:10:34.927000,602,0,-4,0,-761,0,-467,0,57,0,472,0,-492,0,-342,0,-6938,0,-218,0,313,0,-6,0,1072,0,485,0,2,-1,?
2017-03-27 15:10:34.935000,596,0,-7,0,-767,0,-453,0,45,0,473,0,-487,0,-342,0,-6938,0,-229,0,294,0,-13,0,1058,0,480,0,2,-1,?
2017-03-27 15:10:34.941000,569,0,3,0,-786,0,-452,0,-7,0,450,0,-498,0,-367,0,-6938,0,-243,0,270,0,-33,0,1046,0,459,0,2,-1,?
2017-03-27 15:10:34.948000,573,0,0,0,-777,0,-451,0,-18,0,435,0,-480,0,-354,0,-6938,0,-201,0,285,0,-32,0,1053,0,463,0,2,0,?
2017-03-27 15:10:34.957000,597,0,0,0,-767,0,-442,0,-11,0,447,0,-474,0,-370,0,-6938,0,-156,0,309,0,-30,0,1061,0,479,0,2,0,?
2017-03-27 15:10:34.964000,603,0,3,0,-758,0,-421,0,16,0,469,0,-487,0,-390,0,-6938,0,-157,0,313,0,-28,0,1065,0,486,0,2,0,?
2017-03-27 15:10:34.972000,598,0,0,0,-747,0,-417,0,42,0,475,0,-482,0,-349,0,-6938,0,-176,0,308,0,-16,0,1058,0,486,0,2,0,?
2017-03-27 15:10:34.980000,594,0,3,0,-760,0,-431,0,25,0,467,0,-477,0,-335,0,-6938,0,-199,0,296,0,-21,0,1047,0,470,0,2,1,?
2017-03-27 15:10:34.987000,596,0,1,0,-768,0,-422,0,31,0,474,0,-472,0,-347,0,-6938,0,-210,0,293,0,-26,0,1046,0,460,0,2,1,?
2017-03-27 15:10:34.996000,591,0,-4,0,-758,0,-418,0,44,0,481,0,-465,0,-323,0,-6938,0,-210,0,294,0,-23,0,1044,0,468,0,2,1,?
2017-03-27 15:10:35.003000,574,0,-5,0,-763,0,-439,0,18,0,471,0,-462,0,-312,0,-6938,0,-208,0,286,0,-26,0,1032,0,463,0,2,2,?
2017-03-27 15:10:35.012000,586,0,0,0,-754,0,-425,0,24,0,469,0,-448,0,-325,0,-6938,0,-192,0,295,0,-16,0,1039,0,461,0,2,2,?
2017-03-27 15:10:35.020000,627,0,6,0,-708,0,-390,0,69,0,501,0,-432,0,-303,0,-6938,0,-166,0,328,0,9,0,1064,0,493,0,2,2,?
2017-03-27 15:10:35.028000,637,0,-1,0,-688,0,-397,0,72,0,533,0,-443,0,-291,0,-6938,0,-164,0,340,0,9,0,1070,0,505,0,3,2,?
2017-03-27 15:10:35.035000,610,0,-6,0,-704,0,-426,0,42,0,526,0,-465,0,-328,0,-6938,0,-184,0,319,0,-8,0,1053,0,486,0,3,2,?
2017-03-27 15:10:35.043000,593,0,-1,0,-694,0,-424,0,60,0,501,0,-463,0,-341,0,-6938,0,-182,0,316,0,-4,0,1044,0,486,0,3,3,?
2017-03-27 15:10:35.052000,613,6920,3,0,-678,0,-397,0,77,0,509,0,-436,0,-312,0,-6938,0,-157,0,334,0,0,0,1056,0,499,0,3,3,?
2017-03-27 15:10:35.059000,646,6920,4,504,-657,0,-391,0,56,0,531,0,-425,0,-288,0,-6938,0,-129,0,355,0,10,0,1079,0,519,0,3,3,?
2017-03-27 15:10:35.067000,646,6920,3,504,-632,0,-409,0,45,0,520,0,-437,0,-311,0,-6938,0,-118,0,367,0,22,0,1081,0,533,5952,3,3,?
2017-03-27 15:10:35.074000,614,6920,0,504,-640,176,-413,0,30,0,494,0,-447,0,-341,0,-6938,0,-133,0,353,0,8,0,1055,0,519,5952,3,2,?
2017-03-27 15:10:35.083000,621,6920,5,504,-639,176,-402,1400,29,0,499,0,-449,0,-317,0,-6938,0,-138,0,346,0,1,0,1047,0,516,5952,3,2,?
2017-03-27 15:10:35.089000,668,6920,12,504,-604,176,-401,1400,61,1120,512,0,-447,0,-276,0,-6938,0,-93,0,377,0,28,0,1073,0,548,5952,3,2,?
2017-03-27 15:10:35.098000,688,6920,6,504,-595,176,-413,1400,89,1120,508,640,-431,0,-270,0,-6938,0,-50,0,406,0,44,0,1082,0,565,5952,3,2,?
2017-03-27 15:10:35.106000,676,6920,-1,504,-609,176,-422,1400,97,1120,527,640,-421,5912,-278,0,-6938,0,-74,0,393,0,28,0,1067,0,546,5952,3,1,?
2017-03-27 15:10:35.114000,682,6920,-3,504,-593,176,-424,1400,110,1120,561,640,-427,5912,-283,6472,-6938,0,-118,0,380,0,18,0,1065,0,538,5952,2,0,?
2017-03-27 15:10:35.121000,698,6920,-3,504,-593,176,-429,1400,93,1120,548,640,-421,5912,-291,6472,-6938,0,-139,0,388,0,18,0,1072,0,543,5952,2,0,?
2017-03-27 15:10:35.128000,695,6920,3,504,-619,176,-435,1400,61,1120,522,640,-413,5912,-287,6472,-6938,0,-136,816,405,0,21,0,1076,0,544,5952,2,-1,?
2017-03-27 15:10:35.136000,692,6920,-2,504,-605,176,-433,1400,85,1120,528,640,-414,5912,-279,6472,-6938,0,-100,816,425,8128,47,0,1081,0,553,5952,2,-2,?
2017-03-27 15:10:35.145000,694,6920,-5,504,-576,176,-445,1400,103,1120,518,640,-420,5912,-290,6472,-6938,0,-87,816,422,8128,53,4688,1069,0,553,5952,2,-3,?
2017-03-27 15:10:35.153000,683,6920,4,504,-585,176,-460,1400,65,1120,494,640,-434,5912,-310,6472,-6938,0,-130,816,387,8128,24,4688,1040,4656,525,5952,2,-3,?
2017-03-27 15:10:35.161000,667,6920,2,504,-588,176,-446,1400,45,1120,505,640,-429,5912,-311,6472,-6938,0,-145,808,372,8128,27,4688,1032,4656,511,5952,2,-4,?
2017-03-27 15:10:35.167000,661,6920,2,504,-567,176,-444,1400,55,1120,511,640,-411,5912,-296,6472,-6938,0,-114,808,393,8152,52,4688,1052,4656,527,5952,2,-5,?
2017-03-27 15:10:35.177000,659,6920,1,504,-570,176,-487,1400,79,1120,500,640,-425,5912,-298,6472,-6938,0,-119,808,394,8152,44,4688,1054,4656,526,5952,2,-5,?
2017-03-27 15:10:35.183000,658,6920,-3,504,-584,176,-499,1400,114,1120,516,640,-448,5912,-320,6472,-6938,0,-151,808,375,8152,35,4688,1046,4656,514,5952,2,-5,?
2017-03-27 15:10:35.192000,659,6920,-1,504,-576,176,-459,1400,90,1120,517,640,-443,5912,-338,6472,-6938,0,-154,808,372,8152,41,4688,1051,4656,523,5952,2,-5,?
2017-03-27 15:10:35.199000,650,6920,1,504,-575,176,-465,1400,30,1120,494,640,-440,5912,-336,6472,-6938,0,-148,808,369,8152,29,4688,1048,4656,526,5952,2,-5,?
2017-03-27 15:10:35.206000,642,6920,0,504,-578,176,-496,1400,45,1120,488,640,-447,5912,-322,6472,-6938,0,-153,808,356,8152,23,4688,1040,4656,515,5952,2,-5,?
2017-03-27 15:10:35.214000,651,6920,-2,504,-555,176,-469,1400,96,1120,502,640,-437,5912,-306,6472,-6938,0,-148,808,365,8152,31,4688,1050,4656,528,5952,2,-5,?
2017-03-27 15:10:35.223000,663,6920,1,504,-548,176,-445,1400,97,1120,520,640,-406,5912,-296,6472,-6938,0,-128,808,382,8152,42,4688,1060,4656,549,5952,2,-5,?
2017-03-27 15:10:35.231000,662,6920,2,504,-540,176,-474,1400,77,1120,520,640,-407,5912,-298,6472,-6938,0,-111,808,378,8152,56,4688,1055,4656,546,5952,2,-5,?
2017-03-27 15:10:35.238000,644,6920,-1,504,-436,176,-486,1400,72,1120,497,640,-439,5912,-317,6472,-6938,0,-102,808,368,8152,60,4688,1046,4656,534,5952,2,-6,?
2017-03-27 15:10:35.246000,628,6920,2,504,-294,176,-478,1400,86,1120,501,640,-437,5912,-332,6472,-6938,0,-109,808,357,8152,51,4688,1036,4656,532,5952,2,-6,?
2017-03-27 15:10:35.253000,622,6920,6,504,-253,176,-483,1400,95,1120,528,640,-419,5912,-330,6472,-6938,0,-141,808,343,8152,57,4688,1031,4656,523,5952,2,-6,?
2017-03-27 15:10:35.262000,625,6920,0,504,-271,176,-480,1400,53,1120,488,640,-438,5912,-333,6472,-6938,0,-170,808,337,8152,60,4688,1034,4656,507,5952,2,-6,?
2017-03-27 15:10:35.269000,625,6920,-5,504,-254,176,-471,1400,31,1120,446,640,-456,5912,-337,6472,-6938,0,-179,808,335,8152,45,4688,1032,4656,504,5952,2,-6,?
2017-03-27 15:10:35.278000,618,6920,5,504,-227,176,-465,1400,69,1120,486,640,-441,5912,-324,6472,-6938,0,-177,808,338,8152,57,4688,1034,4656,509,5952,2,-6,?
2017-03-27 15:10:35.286000,633,6920,7,504,-202,176,-449,1400,101,1120,517,640,-427,5912,-307,6472,-6938,0,-146,808,375,8152,98,4688,1057,4656,526,5952,2,-6,?
2017-03-27 15:10:35.294000,658,6920,6,504,-177,176,-437,1400,104,1120,492,640,-427,5912,-297,6472,-6938,0,-113,808,405,8152,116,4688,1075,4656,550,5952,2,-5,?
2017-03-27 15:10:35.301000,637,6920,8,504,-200,176,-452,1400,79,1120,473,640,-439,5912,-309,6472,-6938,0,-142,808,373,8152,105,4688,1055,4656,529,5952,2,-4,?
2017-03-27 15:10:35.309000,599,6920,0,504,-237,176,-465,1400,57,1120,489,640,-450,5912,-318,6472,-6938,0,-190,808,339,8152,108,4688,1037,4656,486,5952,3,-4,?
2017-03-27 15:10:35.317000,600,6920,1,504,-227,176,-451,1400,73,1120,503,640,-444,5912,-305,6472,-6938,0,-178,808,352,8152,128,4688,1050,4656,488,5952,3,-4,?
2017-03-27 15:10:35.325000,612,6920,5,504,-215,176,-444,1400,87,1120,495,640,-445,5912,-305,6472,-6938,0,-160,808,360,8152,144,4688,1051,4656,509,5952,3,-4,?
2017-03-27 15:10:35.331000,614,6920,-2,504,-236,176,-458,1400,88,1120,495,640,-450,5912,-308,6472,-6938,0,-173,808,354,8152,152,4688,1041,4656,511,5952,3,-4,?
2017-03-27 15:10:35.340000,614,6920,-2,504,-261,176,-461,1400,96,1120,509,640,-447,5912,-303,6472,-6938,0,-177,808,358,8152,157,4688,1051,4656,513,5952,3,-4,?
2017-03-27 15:10:35.347000,612,6920,1,504,-272,176,-440,1400,78,1120,497,640,-447,5912,-315,6472,-6938,0,-172,808,356,8152,162,4688,1053,4656,517,5952,3,-4,?
2017-03-27 15:10:35.356000,613,6920,-2,504,-277,176,-441,1400,69,1120,483,640,-434,5912,-313,6472,-6938,0,-194,808,347,8152,176,4688,1043,4656,514,5952,3,-3,?
2017-03-27 15:10:35.364000,617,6920,-5,504,-298,176,-464,1400,113,1120,509,640,-418,5912,-278,6472,-6938,0,-217,808,340,8152,196,4688,1042,4656,507,5952,3,-3,?
2017-03-27 15:10:35.371000,608,6920,-2,504,-318,176,-458,1400,100,1120,509,640,-434,5912,-270,6472,-6938,0,-194,808,336,8152,222,4688,1037,4656,495,5952,3,-3,?
2017-03-27 15:10:35.378000,596,6920,5,504,-316,176,-439,1400,56,1120,472,640,-448,5912,-291,6472,-6938,0,-159,808,343,8152,254,4688,1029,4656,490,5952,3,-2,?
2017-03-27 15:10:35.386000,602,6920,6,504,-310,176,-451,1400,70,1120,470,640,-448,5912,-293,6472,-6938,0,-174,808,354,8152,297,4688,1031,4656,493,5952,3,-2,?
2017-03-27 15:10:35.395000,609,6920,4,504,-322,176,-460,1400,68,1120,473,640,-469,5912,-301,6472,-6938,0,-216,808,347,8152,357,4688,1031,4656,482,5952,3,-2,?
2017-03-27 15:10:35.402000,621,6920,10,504,-322,176,-436,1400,74,1120,468,640,-467,5912,-306,6472,-6938,0,-216,808,348,8152,440,4688,1042,4656,482,5952,3,-2,?
2017-03-27 15:10:35.411000,633,6920,10,504,-315,176,-414,1400,117,1120,492,640,-419,5912,-289,6472,-6938,0,-187,808,381,8152,543,4688,1064,4656,506,5952,3,-1,?
2017-03-27 15:10:35.417000,635,6920,1,504,-328,176,-420,1400,102,1120,509,640,-416,5912,-275,6472,-6938,0,-190,808,388,8152,635,4688,1064,4656,509,5952,3,-1,?
2017-03-27 15:10:35.425000,626,6920,-1,504,-344,176,-433,1400,77,1120,501,640,-449,5912,-268,6472,-6938,0,-203,808,369,8152,708,4688,1053,4656,493,5952,3,-1,?
2017-03-27 15:10:35.433000,623,6920,4,504,-338,176,-430,1400,136,1120,515,640,-437,5912,-252,6472,-6938,0,-179,808,384,8152,797,4688,1068,4656,505,5952,3,-1,?
2017-03-27 15:10:35.441000,636,6920,1,504,-332,176,-408,1400,172,1120,539,640,-409,5912,-236,6472,-6938,0,-156,808,402,8152,881,4688,1089,4656,520,5952,3,-1,?
2017-03-27 15:10:35.449000,630,6920,0,504,-352,176,-394,1400,123,1120,525,640,-417,5912,-244,6472,-6938,0,-184,808,377,8152,920,4688,1081,4656,497,5952,3,-1,?
2017-03-27 15:10:35.457000,622,6920,5,504,-368,176,-397,1400,86,1120,504,640,-432,5912,-257,6472,-6938,0,-205,808,363,8152,958,4688,1079,4656,482,5952,2,-1,?
2017-03-27 15:10:35.464000,624,6920,4,504,-379,176,-406,1400,41,1120,485,640,-435,5912,-283,6472,-6938,0,-196,808,371,8152,1016,4688,1094,4656,489,5952,2,-1,?
2017-03-27 15:10:35.471000,623,6920,0,504,-391,176,-423,1400,26,1120,474,640,-440,5912,-305,6472,-6938,0,-194,808,366,8152,1070,4688,1095,4656,485,5952,2,-1,?
2017-03-27 15:10:35.480000,626,6920,-1,504,-382,176,-415,1400,100,1120,496,640,-438,5912,-276,6472,-6938,0,-187,808,375,8152,1128,4688,1087,4656,486,5952,2,0,?
2017-03-27 15:10:35.489000,627,6920,7,504,-380,176,-381,1400,98,1120,511,640,-435,5912,-256,6472,-6938,0,-181,808,374,8152,1194,4688,1078,4656,490,5952,2,0,?
2017-03-27 15:10:35.497000,623,6920,6,504,-402,176,-384,1400,34,1120,506,640,-425,5912,-261,6472,-6938,0,-174,808,361,8152,1285,4688,1075,4656,481,5952,2,0,?
2017-03-27 15:10:35.504000,630,6920,0,504,-406,176,-398,1400,95,1120,524,640,-396,5912,-234,6472,-6938,0,-124,808,390,8152,1414,4688,1094,4656,489,5952,2,0,?
2017-03-27 15:10:35.512000,640,6920,6,504,-389,176,-372,1400,191,1120,555,640,-392,5912,-191,6472,-6938,0,-87,808,418,8152,1523,4688,1104,4656,505,5952,2,1,?
2017-03-27 15:10:35.521000,616,6920,4,504,-414,176,-369,1400,139,1120,539,640,-417,5912,-212,6472,-6938,0,-141,808,375,8152,1579,4688,1071,4656,477,5952,2,1,?
2017-03-27 15:10:35.528000,595,6920,1,504,-439,176,-400,1400,61,1120,504,640,-423,5912,-247,6472,-6938,0,-189,808,347,8152,1625,4688,1055,4656,455,5952,2,1,?
2017-03-27 15:10:35.536000,617,6920,6,504,-406,176,-392,1400,108,1120,514,640,-412,5912,-225,6472,-6938,0,-159,808,381,8152,1658,4688,1079,4656,482,5952,2,0,?
2017-03-27 15:10:35.545000,636,6920,6,504,-373,176,-362,1400,164,1120,547,640,-415,5912,-195,6472,-6938,0,-156,808,391,8152,1670,4688,1076,4656,498,5952,2,0,?
2017-03-27 15:10:35.551000,623,6928,3,504,-381,176,-362,1400,100,1120,526,640,-419,5912,-207,6472,-6938,0,-196,808,365,8152,1717,4688,1040,4656,481,5952,2,-1,?
2017-03-27 15:10:35.559000,619,6928,1,504,-388,176,-364,1400,46,1120,495,640,-415,5912,-228,6472,-6938,0,-190,808,370,8152,1798,4688,1036,4656,483,5952,2,-2,?
2017-03-27 15:10:35.567000,637,6928,5,504,-374,176,-347,1400,108,1120,541,640,-406,5912,-220,6472,-6938,0,-154,808,394,8152,1858,4688,1073,4656,500,5992,2,-3,?
2017-03-27 15:10:35.574000,632,6928,5,504,-371,184,-340,1400,107,1120,555,640,-422,5912,-228,6472,-6938,0,-160,808,385,8152,1902,4688,1090,4656,490,5992,2,-4,?
2017-03-27 15:10:35.583000,622,6928,2,504,-374,184,-350,1400,54,1120,483,640,-454,5912,-246,6472,-6938,0,-158,808,383,8152,1999,4688,1083,4656,488,5992,2,-5,?
2017-03-27 15:10:35.591000,637,6928,7,504,-367,184,-342,1400,129,1128,477,640,-442,5912,-219,6472,-6938,0,-125,808,419,8152,2113,4688,1090,4656,520,5992,2,-5,?
2017-03-27 15:10:35.598000,628,6928,12,504,-379,184,-327,1400,143,1128,514,656,-439,5912,-222,6472,-6938,0,-135,808,416,8152,2167,4688,1081,4656,512,5992,2,-5,?
2017-03-27 15:10:35.606000,595,6928,4,504,-406,184,-345,1400,23,1128,485,656,-477,5896,-268,6472,-6938,0,-159,808,380,8152,2247,4688,1056,4656,461,5992,2,-5,?
2017-03-27 15:10:35.613000,598,6928,2,504,-405,184,-361,1400,62,1128,487,656,-466,5896,-248,6488,-6938,0,-127,808,390,8152,2461,4688,1062,4656,452,5992,2,-5,?
2017-03-27 15:10:35.621000,614,6928,14,504,-367,184,-338,1400,198,1128,545,656,-416,5896,-188,6488,-6938,8,-90,808,419,8152,2724,4688,1084,4656,475,5992,2,-6,?
2017-03-27 15:10:35.629000,600,6928,13,504,-309,184,-317,1400,156,1128,539,656,-424,5896,-181,6488,-6938,8,-109,824,400,8152,2899,4688,1075,4656,466,5992,2,-6,?
2017-03-27 15:10:35.637000,584,6928,6,504,-150,184,-324,1400,76,1128,508,656,-445,5896,-185,6488,-6938,8,-131,824,373,8160,2976,4688,1061,4656,458,5992,2,-6,?
2017-03-27 15:10:35.648000,597,6928,6,504,113,184,-324,1400,114,1128,513,656,-436,5896,-167,6488,-6938,8,-104,824,385,8160,2990,4008,1065,4656,483,5992,2,-6,?
2017-03-27 15:10:35.655000,610,6928,7,504,292,184,-312,1400,146,1128,512,656,-429,5896,-185,6488,-6938,8,-56,824,400,8160,2961,4008,1074,4640,499,5992,2,-6,?
2017-03-27 15:10:35.663000,607,6928,16,504,314,184,-308,1400,134,1128,516,656,-429,5896,-203,6488,-6938,8,-29,800,396,8160,2873,4008,1076,4640,491,5992,2,-6,?
2017-03-27 15:10:35.668000,610,6928,14,504,316,184,-298,1400,143,1128,537,656,-438,5896,-177,6488,-6938,8,-39,800,395,8168,2756,4008,1065,4640,498,5992,2,-6,?
2017-03-27 15:10:35.677000,625,6928,8,504,356,184,-280,1400,143,1128,537,656,-439,5896,-158,6488,-6938,8,-64,800,401,8168,2713,4008,1055,4640,517,5992,2,-6,?
2017-03-27 15:10:35.683000,634,6928,15,504,377,184,-284,1400,125,1128,525,656,-410,5896,-170,6488,-6938,8,-69,800,407,8168,2754,4008,1063,4640,518,5992,2,-5,?
2017-03-27 15:10:35.692000,627,6928,14,504,386,184,-297,1400,126,1128,535,656,-397,5896,-180,6488,-6938,8,-68,800,411,8168,2782,4008,1068,4640,512,5992,2,-5,?
2017-03-27 15:10:35.701000,624,6928,5,504,407,184,-290,1400,122,1128,541,656,-417,5896,-172,6488,-6938,8,-84,800,406,8168,2770,4008,1063,4640,510,5992,2,-5,?
2017-03-27 15:10:35.708000,629,6928,4,504,422,184,-285,1400,106,1128,527,656,-430,5896,-167,6488,-6938,8,-96,800,403,8168,2766,4008,1070,4640,509,5992,2,-5,?
2017-03-27 15:10:35.715000,635,6928,11,504,422,184,-293,1400,102,1128,525,656,-407,5896,-170,6488,-6938,8,-78,800,418,8168,2760,4008,1088,4640,514,5992,2,-5,?
2017-03-27 15:10:35.722000,633,6928,12,504,411,184,-270,1400,106,1128,533,656,-393,5896,-170,6488,-6939,8,-60,800,423,8168,2701,4008,1084,4640,515,5992,2,-4,?
2017-03-27 15:10:35.731000,626,6928,11,504,396,184,-259,1400,120,1128,530,656,-400,5896,-157,6488,-6937,8,-59,800,408,8168,2617,4008,1068,4640,501,5992,2,-4,?
2017-03-27 15:10:35.739000,626,6928,6,504,374,184,-287,1400,99,1128,510,656,-391,5896,-167,6488,-6939,8,-50,800,408,8168,2572,4008,1074,4640,496,5992,2,-3,?
2017-03-27 15:10:35.747000,623,6928,2,504,364,184,-284,1400,45,1128,496,656,-385,5896,-199,6488,-6940,8,-43,800,409,8168,2546,4008,1074,4640,488,5992,2,-3,?
2017-03-27 15:10:35.756000,636,6928,10,504,395,184,-248,1400,96,1128,512,656,-400,5896,-179,6488,-6933,8,-45,800,408,8168,2513,4008,1067,4640,491,5992,2,-2,?
2017-03-27 15:10:35.763000,656,6928,14,504,431,184,-243,1400,197,1128,540,656,-402,5896,-136,6488,-6932,8,-30,800,428,8168,2491,4008,1081,4640,517,5992,2,-2,?
2017-03-27 15:10:35.769000,641,6928,5,504,381,184,-258,1400,175,1128,545,656,-397,5896,-144,6488,-6937,8,-19,800,428,8168,2460,4008,1080,4640,517,5992,2,-1,?
2017-03-27 15:10:35.778000,620,6928,-1,504,344,184,-247,1400,115,1128,527,656,-397,5896,-165,6488,-6933,8,-22,800,411,8168,2380,4008,1055,4640,494,5992,2,-1,?
2017-03-27 15:10:35.787000,633,6928,2,504,380,184,-240,1400,149,1128,527,656,-370,5896,-143,6488,-6928,8,8,800,424,8168,2267,4008,1053,4640,506,5992,2,0,?
2017-03-27 15:10:35.794000,638,6928,8,504,167,184,-252,1400,163,1128,542,656,-349,5896,-133,6488,-6928,8,41,800,436,8168,2160,4008,1058,4640,520,5992,1,0,?
2017-03-27 15:10:35.802000,612,6928,12,504,-293,184,-259,1400,98,1128,522,656,-363,5896,-167,6488,-6914,8,6,800,413,8168,2067,4008,1038,4640,492,5992,1,1,?
2017-03-27 15:10:35.809000,607,6928,10,504,-506,184,-262,1400,86,1128,501,656,-364,5896,-179,6488,-6903,8,-33,800,403,8168,2001,4008,1034,4640,477,5992,1,2,?
2017-03-27 15:10:35.817000,624,6928,12,504,-420,184,-255,1400,147,1128,524,656,-354,5896,-147,6488,-6892,8,-15,800,429,8168,1973,4008,1053,4640,499,5992,1,2,?
2017-03-27 15:10:35.825000,639,6928,15,504,-377,184,-226,1400,178,1128,544,656,-348,5896,-123,6488,-6881,8,-5,800,452,8168,2004,4008,1062,4640,511,5992,1,3,?
2017-03-27 15:10:35.832000,643,6928,12,504,-398,184,-216,1400,131,1128,526,656,-356,5896,-135,6488,-6891,8,-20,800,454,8168,2079,4008,1057,4640,501,5992,1,4,?
2017-03-27 15:10:35.841000,631,6928,9,504,-370,184,-232,1400,125,1128,526,656,-368,5896,-139,6488,-6894,8,-17,800,445,8168,2135,4008,1055,4640,500,5992,1,4,?
2017-03-27 15:10:35.849000,635,6928,8,504,-344,184,-215,1400,191,1128,549,656,-380,5896,-147,6488,-6891,8,-24,800,439,8168,2139,4008,1055,4640,511,5992,0,5,?
2017-03-27 15:10:35.855000,644,6928,11,504,-343,184,-197,1400,173,1128,527,656,-401,5896,-167,6488,-6885,8,-45,800,437,8168,2116,4008,1056,4640,510,5992,0,5,?
2017-03-27 15:10:35.866000,637,6928,13,504,-355,184,-233,1400,116,1128,513,656,-397,5896,-151,6488,-6861,8,-16,800,450,8168,2105,4008,1070,4640,510,5992,0,5,?
2017-03-27 15:10:35.872000,636,6928,12,504,-358,184,-250,1400,141,1128,536,656,-374,5896,-146,6488,-6851,8,6,800,462,8168,2088,4008,1083,4640,517,5992,0,6,?
2017-03-27 15:10:35.880000,655,6928,17,504,-336,184,-217,1400,172,1128,526,656,-385,5896,-184,6488,-6863,8,-24,800,458,8168,2062,4008,1075,4640,521,5992,0,5,?
2017-03-27 15:10:35.889000,661,6928,17,504,-325,184,-198,1400,144,1128,500,656,-401,5896,-179,6488,-6852,8,-21,800,464,8168,2065,4008,1072,4640,526,5992,0,5,?
2017-03-27 15:10:35.896000,652,6928,11,504,-328,184,-206,1400,120,1128,505,656,-392,5896,-148,6488,-6832,8,-2,800,469,8168,2068,4008,1075,4640,522,5992,0,5,?
2017-03-27 15:10:35.903000,654,6928,9,504,-328,184,-219,1400,133,1128,514,656,-397,5896,-168,6488,-6843,8,-23,800,456,8168,2035,4008,1071,4640,508,5992,0,5,?
2017-03-27 15:10:35.912000,657,6928,9,504,-322,184,-230,1400,138,1128,505,656,-419,5896,-191,6488,-6850,8,-30,800,455,8168,1983,4008,1072,4640,503,5992,1,4,?
2017-03-27 15:10:35.920000,651,6928,11,504,-318,184,-218,1400,132,1128,508,656,-430,5896,-178,6488,-6823,8,-9,800,464,8168,1940,4008,1079,4640,505,5992,0,4,?
2017-03-27 15:10:35.927000,647,6928,15,504,-316,184,-208,1400,142,1128,509,656,-438,5896,-189,6488,-6816,8,4,800,457,8168,1900,4008,1080,4640,494,5992,1,4,?
2017-03-27 15:10:35.936000,652,6928,15,504,-306,184,-228,1400,155,1128,503,656,-441,5896,-217,6488,-6831,8,17,800,458,8168,1873,4008,1084,4640,489,5992,1,4,?
2017-03-27 15:10:35.941000,663,6928,13,504,-292,184,-241,1400,146,1128,507,656,-423,5896,-205,6488,-6825,8,26,800,481,8168,1867,4008,1101,4640,504,5992,1,3,?
2017-03-27 15:10:35.950000,657,6928,13,504,-292,184,-230,1400,119,1128,494,656,-414,5896,-189,6488,-6824,8,13,800,487,8168,1862,4008,1112,4640,514,5992,1,3,?
2017-03-27 15:10:35.958000,654,6928,14,504,-277,184,-222,1400,143,1128,490,656,-429,5896,-186,6488,-6837,8,5,800,485,8168,1879,4008,1124,4640,518,5992,1,3,?
2017-03-27 15:10:35.966000,669,6928,15,504,-249,184,-215,1400,144,1128,508,656,-425,5896,-188,6488,-6817,8,0,800,488,8168,1909,4008,1142,4640,526,5992,1,2,?
2017-03-27 15:10:35.975000,648,6928,14,504,-279,184,-229,1400,-10,1128,462,656,-429,5896,-242,6488,-6823,8,-38,800,454,8168,1893,4008,1128,4640,504,5992,2,1,?
2017-03-27 15:10:35.981000,621,6928,16,504,-320,184,-268,1400,-57,1128,411,656,-474,5896,-289,6488,-6868,8,-59,800,425,8168,1882,4008,1109,4640,479,5992,2,0,?
2017-03-27 15:10:35.989000,657,6928,16,504,-272,184,-265,1400,137,1128,467,656,-463,5896,-235,6488,-6851,8,-17,800,469,8168,1940,4008,1143,4640,516,5992,2,-1,?
2017-03-27 15:10:35.998000,706,6928,17,504,-201,184,-225,1400,248,1128,520,656,-404,5896,-161,6488,-6844,8,20,800,522,8168,1993,4008,1161,4640,570,5992,2,-1,?
2017-03-27 15:10:36.006000,691,6928,19,504,-213,184,-222,1400,171,1128,478,656,-433,5896,-182,6488,-6922,8,-12,800,496,8168,1987,4008,1093,4640,560,5992,2,-2,?
2017-03-27 15:10:36.012000,666,6928,12,504,-250,184,-247,1400,166,1128,456,656,-479,5896,-210,6488,-6957,8,-32,800,468,8168,2007,4008,1049,4640,536,5992,2,-3,?
2017-03-27 15:10:36.021000,674,6928,12,504,-239,184,-257,1400,231,1128,482,656,-449,5896,-199,6488,-6934,8,-9,800,493,8168,2059,4008,1075,4640,550,5992,2,-3,?
2017-03-27 15:10:36.027000,677,6928,9,504,-226,184,-255,1400,200,1128,469,656,-446,5896,-220,6488,-6936,8,-23,800,491,8168,2086,4008,1080,4640,548,5992,2,-3,?
2017-03-27 15:10:36.035000,650,6928,4,504,-252,184,-263,1400,139,1128,451,656,-474,5896,-245,6488,-6945,8,-59,800,452,8168,2077,4008,1053,4640,517,5992,2,-3,?
2017-03-27 15:10:36.045000,604,6928,7,504,-296,184,-297,1400,96,1128,462,656,-469,5896,-241,6488,-6939,8,-76,800,427,8168,2049,4008,1035,4640,500,5992,2,-3,?
2017-03-27 15:10:36.052000,591,6928,10,504,-314,184,-327,1400,117,1128,470,656,-450,5896,-239,6488,-6936,8,-95,800,435,8168,2050,4008,1045,4640,510,5992,3,-3,?
2017-03-27 15:10:36.059000,600,6928,9,504,-318,184,-323,1400,165,1128,482,656,-433,5896,-259,6488,-6936,8,-130,800,433,8168,2061,4008,1056,4640,514,5992,3,-3,?
2017-03-27 15:10:36.068000,585,6928,9,496,-342,184,-317,1400,139,1128,498,656,-426,5896,-253,6488,-6941,8,-151,800,401,8168,2026,4008,1042,4640,498,5992,3,-3,?
2017-03-27 15:10:36.076000,571,6928,13,496,-362,184,-337,1400,122,1128,504,656,-428,5896,-227,6488,-6933,8,-123,800,383,8168,1963,4008,1036,4640,499,6016,3,-3,?
2017-03-27 15:10:36.083000,585,6928,13,496,-354,176,-354,1400,153,1128,506,656,-416,5896,-242,6488,-6910,8,-83,800,394,8168,1901,4008,1053,4640,520,6016,3,-2,?
2017-03-27 15:10:36.093000,596,6928,5,496,-340,176,-343,1376,152,1128,508,656,-402,5896,-255,6488,-6907,8,-91,800,412,8168,1826,4008,1070,4640,528,6016,3,-2,?
2017-03-27 15:10:36.100000,590,6928,4,496,-347,176,-339,1376,114,1120,504,656,-405,5896,-233,6488,-6903,8,-124,800,410,8168,1748,4008,1078,4640,519,6016,3,-1,?
2017-03-27 15:10:36.108000,604,6928,1,496,-363,176,-356,1376,123,1120,503,664,-388,5896,-203,6488,-6882,8,-114,800,419,8168,1697,4008,1087,4640,529,6016,3,0,?
2017-03-27 15:10:36.115000,617,6928,-2,496,-380,176,-368,1376,151,1120,511,664,-360,6168,-203,6488,-6867,8,-91,800,446,8168,1650,4008,1098,4640,543,6016,3,0,?
2017-03-27 15:10:36.122000,612,6928,5,496,-394,176,-381,1376,141,1120,510,664,-377,6168,-212,6480,-6855,8,-121,800,461,8168,1589,4008,1120,4640,537,6016,3,0,?
2017-03-27 15:10:36.130000,605,6928,0,496,-405,176,-400,1376,117,1120,500,664,-399,6168,-228,6480,-6857,1312,-170,800,437,8168,1496,4008,1122,4640,527,6016,2,0,?
2017-03-27 15:10:36.138000,589,6928,-2,496,-430,176,-405,1376,123,1120,515,664,-386,6168,-243,6480,-6855,1312,-185,824,385,8168,1410,4008,1079,4640,518,6016,2,0,?
2017-03-27 15:10:36.145000,584,6928,6,496,-451,176,-406,1376,155,1120,540,664,-373,6168,-221,6480,-6835,1312,-164,824,370,8160,1349,4008,1064,4640,516,6016,2,-1,?
2017-03-27 15:10:36.153000,609,6928,4,496,-443,176,-407,1376,156,1120,526,664,-375,6168,-195,6480,-6823,1312,-143,824,401,8160,1275,4048,1096,4640,538,6016,2,-2,?
2017-03-27 15:10:36.162000,638,6928,0,496,-439,176,-394,1376,131,1120,502,664,-361,6168,-194,6480,-6777,1312,-132,824,430,8160,1172,4048,1132,5168,564,6016,1,-2,?
2017-03-27 15:10:36.171000,648,6928,3,496,-492,176,-386,1376,135,1120,517,664,-339,6168,-185,6480,-6645,1312,-131,808,419,8160,1047,4048,1148,5168,544,6016,1,-2,?
2017-03-27 15:10:36.177000,651,6928,2,496,-539,176,-401,1376,163,1120,538,664,-324,6168,-141,6480,-6369,1312,-149,808,391,8176,972,4048,1150,5168,510,6016,1,-1,?
2017-03-27 15:10:36.184000,632,6928,2,496,-510,176,-406,1376,163,1120,534,664,-292,6168,-104,6480,-6004,1312,-140,808,374,8176,965,4048,1156,5168,506,6016,1,-1,?
2017-03-27 15:10:36.195000,613,6928,12,496,-479,176,-405,1376,157,1120,528,664,-270,6168,-108,6480,-5830,1312,-100,808,369,8176,919,4048,1177,5168,502,6016,1,0,?
2017-03-27 15:10:36.202000,647,6928,10,496,-491,176,-400,1376,179,1120,539,664,-273,6168,-119,6480,-5944,1312,-72,808,386,8176,827,4048,1198,5168,500,6016,0,0,?
2017-03-27 15:10:36.209000,666,6928,1,496,-467,176,-405,1376,190,1120,563,664,-270,6168,-112,6480,-6120,1312,-69,808,406,8176,772,4048,1198,5168,525,6016,0,0,?
2017-03-27 15:10:36.216000,665,6928,-3,496,-426,176,-442,1376,182,1120,575,664,-275,6168,-99,6480,-6249,1312,-66,808,410,8176,691,4048,1203,5168,560,6016,0,-1,?
2017-03-27 15:10:36.223000,699,6928,-4,496,-442,176,-461,1376,210,1120,578,664,-277,6168,-87,6480,-6375,1312,-37,808,412,8176,589,4048,1221,5168,579,6016,0,-1,?
2017-03-27 15:10:36.231000,669,6928,1,496,-474,176,-454,1376,229,1120,570,664,-276,6168,-97,6480,-6465,1312,-42,808,396,8176,572,4048,1193,5168,559,6016,0,-2,?
2017-03-27 15:10:36.239000,560,6928,-8,496,-443,176,-483,1376,177,1120,525,664,-307,6168,-140,6480,-6481,1312,-106,808,320,8176,539,4048,1119,5168,509,6016,0,-3,?
2017-03-27 15:10:36.247000,516,6928,-16,496,-373,176,-522,1376,119,1120,472,664,-348,6168,-168,6480,-6488,1312,-143,808,245,8176,483,4048,1079,5168,487,6016,0,-3,?
2017-03-27 15:10:36.254000,548,6928,-10,496,-309,176,-537,1376,99,1120,456,664,-357,6168,-170,6480,-6507,1312,-138,808,235,8176,558,4048,1078,5168,486,6016,1,-3,?
2017-03-27 15:10:36.263000,527,6928,-14,496,-251,176,-570,1376,82,1120,448,664,-382,6168,-195,6480,-6504,1312,-156,808,218,8176,656,4048,1052,5168,455,6016,1,-2,?
2017-03-27 15:10:36.270000,482,6928,-15,496,-194,176,-614,1376,67,1120,438,664,-414,6168,-223,6480,-6480,1312,-159,808,167,8176,701,4048,1031,5168,423,6016,1,-2,?
2017-03-27 15:10:36.281000,500,6928,-9,496,-144,176,-646,1376,44,1120,429,664,-410,6168,-228,6480,-6458,1312,-131,808,143,8176,794,4048,1047,5168,414,6016,1,-1,?
2017-03-27 15:10:36.286000,509,6928,-11,496,-114,176,-680,1376,12,1120,402,664,-424,6168,-253,6480,-6443,1312,-145,808,128,8176,904,4048,1047,5168,385,6016,1,-1,?
2017-03-27 15:10:36.293000,468,6928,-12,496,-81,176,-684,1376,8,1120,394,664,-444,6168,-288,6480,-6432,1312,-155,808,106,8176,960,4048,1032,5168,364,6016,1,0,?
2017-03-27 15:10:36.303000,457,6928,-11,496,-51,176,-690,1376,23,1120,407,664,-434,6168,-280,6480,-6438,1312,-135,808,103,8176,1011,4048,1035,5168,380,6016,2,0,?
2017-03-27 15:10:36.310000,485,6928,-17,496,-51,176,-739,1376,23,1120,396,664,-444,6168,-254,6480,-6446,1312,-150,808,95,8176,1053,4048,1046,5168,384,6016,2,1,?
2017-03-27 15:10:36.319000,465,6928,-19,496,-50,176,-768,1376,5,1120,380,664,-470,6168,-255,6480,-6442,1312,-165,808,67,8176,1046,4048,1045,5168,368,6016,2,1,?
2017-03-27 15:10:36.326000,437,6928,-15,496,-26,176,-762,1376,-17,1120,379,664,-464,6168,-262,6480,-6429,1312,-129,808,52,8176,1059,4048,1033,5168,371,6016,2,2,?
2017-03-27 15:10:36.333000,452,6928,-13,496,9,176,-775,1376,-36,1120,348,664,-469,6168,-275,6480,-6424,1312,-123,808,40,8176,1076,4048,1025,5168,372,6016,3,2,?
2017-03-27 15:10:36.341000,429,6928,-12,496,29,176,-781,1376,-72,1120,304,664,-505,6168,-298,6480,-6405,1312,-150,808,3,8176,1058,4048,1009,5168,337,6016,3,2,?
2017-03-27 15:10:36.348000,393,6928,-8,496,54,176,-778,1376,-128,1120,312,664,-529,6168,-311,6480,-6370,1312,-134,808,-15,8176,1048,4048,999,5168,314,6016,3,2,?
2017-03-27 15:10:36.357000,424,6928,-8,496,82,176,-821,1376,-174,1120,338,664,-536,6168,-324,6480,-6396,1312,-141,808,-3,8176,1023,4048,1026,5168,317,6016,3,1,?
2017-03-27 15:10:36.364000,457,6928,-17,496,70,176,-859,1376,-196,1120,314,664,-521,6168,-343,6480,-6448,1312,-180,808,17,8176,1006,4048,1059,5168,316,6016,3,1,?
2017-03-27 15:10:36.372000,448,6928,-20,496,20,176,-850,1376,-198,1120,275,664,-509,6168,-341,6480,-6410,1312,-181,808,21,8176,1009,4048,1057,5168,309,6016,3,1,?
2017-03-27 15:10:36.379000,441,6928,-16,496,5,176,-852,1376,-180,1120,277,664,-523,6168,-318,6480,-6336,1312,-186,808,-7,8176,954,4048,1036,5168,298,6016,3,1,?
2017-03-27 15:10:36.387000,436,6928,-17,496,28,176,-868,1376,-169,1120,280,664,-539,6168,-332,6480,-6352,1312,-251,808,-18,8176,894,4048,1036,5168,285,6016,3,1,?
2017-03-27 15:10:36.396000,398,6928,-16,496,-2,176,-857,1376,-201,1120,245,664,-548,6168,-362,6480,-6366,1312,-274,808,-5,8176,919,4048,1030,5168,268,6016,3,1,?
2017-03-27 15:10:36.404000,361,6928,-12,496,-36,176,-848,1376,-233,1120,221,664,-569,6168,-360,6480,-6305,1312,-232,808,-28,8176,904,4048,999,5168,248,6016,3,1,?
2017-03-27 15:10:36.412000,358,6928,-13,496,-8,176,-870,1376,-214,1120,239,664,-576,6168,-359,6480,-6268,1312,-239,808,-72,8176,824,4048,982,5168,232,6016,3,1,?
2017-03-27 15:10:36.420000,381,6928,-12,496,12,176,-897,1376,-208,1120,253,664,-550,6168,-383,6480,-6244,1312,-249,808,-59,8176,867,4048,1010,5168,238,6016,3,1,?
2017-03-27 15:10:36.428000,402,6928,-10,496,8,176,-896,1376,-244,1120,242,664,-538,6168,-385,6480,-6211,1312,-213,808,-11,8176,974,4048,1046,5168,264,6016,3,1,?
2017-03-27 15:10:36.437000,374,6928,-17,496,4,176,-890,1376,-288,1120,208,664,-565,6168,-379,6480,-6245,1312,-280,808,-24,8176,917,4048,1042,5168,249,6016,2,0,?
2017-03-27 15:10:36.444000,321,6928,-18,496,-10,176,-915,1376,-302,1120,177,664,-598,6168,-418,6480,-6277,1312,-446,808,-80,8176,807,4048,1024,5168,195,6016,2,0,?
2017-03-27 15:10:36.451000,344,6928,-12,496,-13,176,-938,1376,-270,1120,202,664,-595,6168,-417,6480,-6225,1312,-495,808,-77,8176,846,4048,1048,5168,205,6016,2,-1,?
2017-03-27 15:10:36.458000,405,6928,-14,496,-3,176,-934,1376,-250,1120,225,664,-573,6168,-372,6480,-6195,1312,-450,808,-37,8176,938,4048,1084,5168,259,6016,2,-1,?
2017-03-27 15:10:36.466000,368,6928,-18,496,-30,176,-942,1376,-295,1120,171,664,-597,6168,-404,6480,-6215,1312,-480,808,-57,8176,931,4048,1066,5168,227,6016,2,-1,?
2017-03-27 15:10:36.474000,275,6928,-17,496,-69,176,-963,1376,-351,1120,107,664,-643,6168,-462,6480,-6199,1312,-504,808,-117,8176,904,4048,1022,5168,151,6016,2,-1,?
2017-03-27 15:10:36.483000,257,6928,-18,496,-81,176,-969,1376,-380,1120,95,664,-664,6168,-472,6480,-6198,1312,-478,808,-153,8176,886,4048,1020,5168,130,6016,1,-2,?
2017-03-27 15:10:36.489000,279,6928,-20,496,-95,176,-977,1376,-411,1120,96,664,-660,6168,-496,6480,-6208,1312,-477,808,-162,8176,854,4048,1044,5168,123,6016,1,-2,?
2017-03-27 15:10:36.498000,259,6928,-18,496,-96,176,-981,1376,-409,1120,90,664,-660,6168,-524,6480,-6145,1312,-466,808,-153,8176,908,4048,1053,5168,102,6016,1,-2,?
2017-03-27 15:10:36.504000,240,6928,-18,496,-86,176,-970,1376,-374,1120,87,664,-664,6168,-500,6480,-6092,1312,-430,808,-143,8176,994,4048,1054,5168,96,6016,1,-2,?
2017-03-27 15:10:36.512000,254,6928,-18,496,-102,176,-972,1376,-391,1120,82,664,-659,6168,-497,6480,-6092,1312,-427,808,-158,8176,940,4048,1062,5168,84,6016,1,-3,?
2017-03-27 15:10:36.520000,248,6928,-16,496,-111,176,-961,1376,-411,1120,93,664,-653,6168,-512,6480,-6054,1312,-436,808,-169,8176,848,4048,1079,5168,69,6016,1,-2,?
2017-03-27 15:10:36.529000,244,6928,-15,496,-92,176,-941,1376,-382,1120,105,664,-648,6168,-500,6480,-6023,1312,-461,808,-157,8176,840,4048,1107,5168,85,6016,1,-2,?
2017-03-27 15:10:36.537000,256,6928,-15,496,-91,176,-965,1376,-363,1120,96,664,-662,6168,-504,6480,-6040,1312,-492,808,-155,8176,817,4048,1107,5168,91,6016,1,-2,?
2017-03-27 15:10:36.545000,252,6928,-13,496,-104,176,-980,1376,-377,1120,93,664,-673,6168,-514,6480,-6020,1312,-476,808,-167,8176,757,4048,1088,5168,75,6016,1,-2,?
2017-03-27 15:10:36.553000,250,6928,-9,496,-104,176,-945,1376,-374,1120,115,664,-650,6168,-503,6480,-5976,1312,-461,808,-161,8176,755,4048,1105,5168,84,6016,1,-2,?
2017-03-27 15:10:36.559000,271,6968,-12,496,-108,176,-926,1376,-349,1120,131,664,-624,6168,-493,6480,-5989,1312,-492,808,-135,8176,771,4048,1147,5168,102,6016,1,-2,?
2017-03-27 15:10:36.569000,278,6968,-18,528,-109,176,-940,1376,-336,1120,126,664,-616,6168,-472,6480,-6003,1312,-496,808,-129,8176,765,4048,1146,5168,97,6016,1,-3,?
2017-03-27 15:10:36.576000,270,6968,-17,528,-113,176,-951,1376,-343,1120,122,664,-618,6168,-455,6480,-5984,1312,-486,808,-141,8176,773,4048,1135,5168,90,6192,1,-3,?
2017-03-27 15:10:36.585000,301,6968,-10,528,-130,248,-949,1376,-356,1120,123,664,-606,6168,-470,6480,-5983,1312,-526,808,-118,8176,767,4048,1172,5168,109,6192,1,-3,?
2017-03-27 15:10:36.590000,323,6968,-7,528,-136,248,-935,1392,-355,1120,114,664,-596,6168,-461,6480,-5970,1312,-540,808,-96,8176,743,4048,1181,5168,123,6192,2,-3,?
2017-03-27 15:10:36.600000,289,6968,-15,528,-129,248,-925,1392,-340,1144,115,664,-596,6168,-425,6480,-5923,1312,-488,808,-117,8176,762,4048,1174,5168,110,6192,2,-3,?
2017-03-27 15:10:36.607000,284,6968,-15,528,-140,248,-950,1392,-343,1144,134,656,-594,6168,-432,6480,-5899,1312,-473,808,-119,8176,790,4048,1222,5168,104,6192,2,-2,?
2017-03-27 15:10:36.616000,312,6968,-7,528,-158,248,-972,1392,-361,1144,139,656,-589,6232,-447,6480,-5911,1312,-519,808,-97,8176,731,4048,1245,5168,112,6192,2,-2,?
2017-03-27 15:10:36.625000,307,6968,-11,528,-151,248,-956,1392,-330,1144,143,656,-563,6232,-428,6648,-5910,1312,-537,808,-89,8176,662,4048,1194,5168,111,6192,2,-2,?
2017-03-27 15:10:36.632000,294,6968,-17,528,-132,248,-946,1392,-269,1144,169,656,-544,6232,-410,6648,-5867,2984,-503,808,-84,8176,683,4048,1165,5168,109,6192,3,-1,?
2017-03-27 15:10:36.637000,310,6968,-14,528,-132,248,-960,1392,-269,1144,178,656,-551,6232,-411,6648,-5836,2984,-492,816,-73,8176,689,4048,1194,5168,119,6192,3,-1,?
2017-03-27 15:10:36.646000,319,6968,-9,528,-144,248,-961,1392,-300,1144,171,656,-560,6232,-412,6648,-5817,2984,-489,816,-69,8184,654,4048,1206,5168,124,6192,3,-1,?
2017-03-27 15:10:36.653000,318,6968,-9,528,-126,248,-936,1392,-282,1144,183,656,-541,6232,-387,6648,-5809,2984,-479,816,-59,8184,646,4376,1195,5168,130,6192,3,-1,?
2017-03-27 15:10:36.661000,321,6968,-12,528,-101,248,-918,1392,-247,1144,198,656,-509,6232,-354,6648,-5819,2984,-507,816,-65,8184,619,4376,1185,5168,141,6192,3,0,?
2017-03-27 15:10:36.669000,372,6968,-11,528,-99,248,-919,1392,-238,1144,208,656,-511,6232,-346,6648,-5797,2984,-535,800,-73,8184,595,4376,1198,5168,155,6192,3,0,?
2017-03-27 15:10:36.676000,441,6968,-7,528,-94,248,-907,1392,-234,1144,219,656,-526,6232,-358,6648,-5746,2984,-514,800,-57,8184,619,4376,1216,5168,173,6192,3,0,?
2017-03-27 15:10:36.685000,396,6968,-11,528,-90,248,-875,1392,-241,1144,202,656,-533,6232,-383,6648,-5722,2984,-496,800,-62,8184,598,4368,1199,5168,163,6192,3,0,?
2017-03-27 15:10:36.694000,358,6968,-4,528,-71,248,-875,1392,-234,1144,213,656,-512,6232,-367,6648,-5734,2984,-504,800,-44,8184,535,4368,1226,5168,180,6192,3,0,?
2017-03-27 15:10:36.701000,445,6968,2,528,-52,248,-898,1392,-178,1144,282,656,-478,6232,-310,6648,-5731,2984,-500,800,26,8184,515,4368,1281,5168,243,6192,3,0,?
2017-03-27 15:10:36.708000,429,6968,-8,528,-23,248,-870,1392,-157,1144,281,656,-490,6232,-307,6648,-5697,2984,-478,800,27,8184,518,4368,1220,5168,233,6192,3,0,?
2017-03-27 15:10:36.715000,353,6968,-6,528,112,248,-823,1392,-177,1144,235,656,-496,6232,-316,6648,-5632,2984,-430,800,-9,8184,543,4368,1151,5168,204,6192,3,0,?
2017-03-27 15:10:36.724000,416,6968,-1,528,273,248,-830,1392,-149,1144,266,656,-437,6232,-263,6648,-5592,2984,-384,800,39,8184,591,4368,1220,5168,261,6192,3,0,?
2017-03-27 15:10:36.730000,451,6968,-7,528,294,248,-843,1392,-127,1144,292,656,-408,6232,-243,6648,-5629,2984,-410,800,74,8184,568,4368,1270,5168,282,6192,3,0,?
2017-03-27 15:10:36.739000,374,6968,-11,528,239,248,-827,1392,-159,1144,256,656,-449,6232,-290,6648,-5633,2984,-429,800,34,8184,540,4368,1208,5168,226,6192,3,0,?
2017-03-27 15:10:36.751000,376,6968,-8,528,249,248,-822,1392,-157,1144,266,656,-471,6232,-291,6648,-5585,2984,-389,800,31,8184,592,4368,1189,5168,231,6192,3,0,?
2017-03-27 15:10:36.756000,418,6968,-6,528,283,248,-830,1392,-133,1144,305,656,-455,6232,-264,6648,-5562,2984,-376,800,60,8184,588,4368,1225,5168,263,6192,3,0,?
2017-03-27 15:10:36.764000,380,6968,-8,528,207,248,-830,1392,-148,1144,293,656,-469,6232,-287,6648,-5574,2984,-399,800,48,8184,533,4368,1211,5168,235,6192,3,-1,?
2017-03-27 15:10:36.770000,348,6968,-7,528,21,248,-815,1392,-156,1144,284,656,-487,6232,-320,6648,-5584,2984,-395,800,20,8184,533,4368,1188,5168,218,6192,2,-1,?
2017-03-27 15:10:36.779000,349,6968,-4,528,-107,248,-798,1392,-146,1144,293,656,-473,6232,-317,6648,-5582,2984,-369,800,21,8184,549,4368,1196,5168,234,6192,2,-1,?
2017-03-27 15:10:36.786000,358,6968,0,528,-95,248,-795,1392,-138,1144,294,656,-440,6232,-281,6648,-5551,2984,-342,800,44,8184,544,4368,1210,5168,251,6192,2,-2,?
2017-03-27 15:10:36.798000,385,6968,3,528,-55,248,-790,1392,-117,1144,293,656,-423,6232,-255,6648,-5516,2984,-332,800,83,8184,561,4368,1228,5168,275,6192,2,-2,?
2017-03-27 15:10:36.803000,399,6968,0,528,-61,248,-772,1392,-107,1144,277,656,-440,6232,-268,6648,-5540,2984,-371,800,106,8184,553,4368,1250,5168,287,6192,2,-2,?
2017-03-27 15:10:36.810000,386,6968,-4,528,-70,248,-761,1392,-102,1144,266,656,-449,6232,-275,6648,-5547,2984,-392,800,100,8184,510,4368,1247,5168,277,6192,2,-2,?
2017-03-27 15:10:36.818000,378,6968,-7,528,-85,248,-761,1392,-83,1144,289,656,-428,6232,-255,6648,-5495,2984,-361,800,101,8184,547,4368,1236,5168,274,6192,2,-3,?
2017-03-27 15:10:36.826000,384,6968,-9,528,-109,248,-763,1392,-92,1144,308,656,-419,6232,-258,6648,-5505,2984,-386,800,105,8184,546,4368,1235,5168,281,6192,2,-3,?
2017-03-27 15:10:36.833000,380,6968,-7,528,-112,248,-769,1392,-116,1144,296,656,-435,6232,-280,6648,-5556,2984,-437,800,84,8184,459,4368,1220,5168,273,6192,2,-3,?
2017-03-27 15:10:36.841000,359,6968,-4,528,-113,248,-763,1392,-96,1144,298,656,-437,6232,-273,6648,-5544,2984,-434,800,73,8184,462,4368,1206,5168,261,6192,2,-3,?
2017-03-27 15:10:36.849000,359,6968,-4,528,-132,248,-754,1392,-64,1144,340,656,-408,6232,-247,6648,-5524,2984,-427,800,93,8184,516,4368,1222,5168,265,6192,2,-3,?
2017-03-27 15:10:36.857000,378,6968,-7,528,-156,248,-756,1392,-55,1144,363,656,-382,6232,-225,6648,-5533,2984,-428,800,100,8184,481,4368,1238,5168,280,6192,2,-3,?
2017-03-27 15:10:36.865000,372,6968,-1,528,-153,248,-748,1392,-50,1144,339,656,-380,6232,-214,6648,-5513,2984,-414,800,94,8184,426,4368,1240,5168,289,6192,2,-3,?
2017-03-27 15:10:36.872000,376,6968,9,528,-155,248,-729,1392,-47,1144,324,656,-383,6232,-210,6648,-5486,2984,-395,800,120,8184,435,4368,1259,5168,304,6192,2,-3,?
2017-03-27 15:10:36.880000,400,6968,3,528,-195,248,-730,1392,-56,1144,338,656,-375,6232,-203,6648,-5499,2984,-394,800,132,8184,441,4368,1273,5168,313,6192,2,-2,?
2017-03-27 15:10:36.888000,380,6968,-9,528,-243,248,-747,1392,-66,1144,333,656,-365,6232,-205,6648,-5492,2984,-426,800,102,8184,427,4368,1261,5168,293,6192,2,-2,?
2017-03-27 15:10:36.896000,351,6968,-5,528,-245,248,-744,1392,-52,1144,327,656,-360,6232,-196,6648,-5441,2984,-425,800,105,8184,420,4368,1278,5168,294,6192,2,-2,?
2017-03-27 15:10:36.903000,393,6968,-1,528,-233,248,-730,1392,-42,1144,347,656,-345,6232,-164,6648,-5376,2984,-346,800,164,8184,410,4368,1327,5168,332,6192,2,-2,?
2017-03-27 15:10:36.914000,430,6968,-5,528,-266,248,-740,1392,-60,1144,356,656,-315,6232,-145,6648,-5209,2984,-283,800,201,8184,437,4368,1353,5168,349,6192,2,-1,?
2017-03-27 15:10:36.920000,407,6968,-3,528,-290,248,-754,1392,-54,1144,363,656,-289,6232,-129,6648,-4910,2984,-250,800,214,8184,478,4368,1386,5168,359,6192,2,-1,?
2017-03-27 15:10:36.927000,419,6968,-4,528,-294,248,-764,1392,-23,1144,381,656,-274,6232,-105,6648,-4686,2984,-192,800,262,8184,457,4368,1463,5168,402,6192,2,-1,?
2017-03-27 15:10:36.936000,477,6968,-12,528,-339,248,-778,1392,-24,1144,381,656,-268,6232,-96,6648,-4642,2984,-142,800,319,8184,452,4368,1498,5168,440,6192,3,-1,?
2017-03-27 15:10:36.943000,499,6968,-9,528,-366,248,-778,1392,-42,1144,379,656,-268,6232,-85,6648,-4691,2984,-114,800,344,8184,518,4368,1474,5168,459,6192,3,-1,?
2017-03-27 15:10:36.951000,458,6968,-6,528,-360,248,-779,1392,-45,1144,382,656,-278,6232,-81,6648,-4817,2984,-101,800,346,8184,516,4368,1463,5168,456,6192,3,-1,?
2017-03-27 15:10:36.959000,409,6968,-6,528,-405,248,-788,1392,-44,1144,367,656,-290,6232,-107,6648,-4956,2984,-90,800,343,8184,459,4368,1448,5168,430,6192,3,-1,?
2017-03-27 15:10:36.969000,434,6968,1,528,-452,248,-796,1392,-21,1144,372,656,-287,6232,-99,6648,-4994,2984,-39,800,362,8184,509,4368,1429,5168,439,6192,2,-1,?
2017-03-27 15:10:36.976000,480,6968,3,528,-460,248,-799,1392,19,1144,405,656,-281,6232,-82,6648,-5032,2984,-17,800,377,8184,579,4368,1430,5168,458,6192,2,-1,?
2017-03-27 15:10:36.981000,447,6968,-2,528,-480,248,-784,1392,6,1144,400,656,-294,6232,-125,6648,-5140,2984,-65,800,350,8184,537,4368,1412,5168,436,6192,2,-1,?
2017-03-27 15:10:36.991000,410,6968,-8,528,-504,248,-778,1392,-48,1144,366,656,-307,6232,-153,6648,-5199,2984,-102,800,323,8184,475,4368,1389,5168,416,6192,2,-1,?
2017-03-27 15:10:37.001000,434,6968,-7,528,-519,248,-802,1392,-51,1144,364,656,-302,6232,-137,6648,-5186,2984,-120,800,327,8184,479,4368,1399,5168,424,6192,2,-1,?
2017-03-27 15:10:37.006000,444,6968,-6,528,-543,248,-825,1392,-10,1144,384,656,-300,6232,-138,6648,-5166,2984,-145,800,324,8184,495,4368,1396,5168,423,6192,2,-1,?
2017-03-27 15:10:37.016000,412,6968,-7,528,-557,248,-820,1392,-6,1144,388,656,-304,6232,-161,6648,-5169,2984,-147,800,288,8184,467,4368,1365,5168,402,6192,2,-1,?
2017-03-27 15:10:37.021000,393,6968,-8,528,-563,248,-817,1392,-37,1144,384,656,-297,6232,-163,6648,-5166,2984,-156,800,255,8184,456,4368,1354,5168,374,6192,2,-2,?
2017-03-27 15:10:37.028000,432,6968,-15,528,-580,248,-820,1392,-15,1144,408,656,-272,6232,-126,6648,-5112,2984,-162,800,280,8184,510,4368,1376,5168,381,6192,2,-2,?
2017-03-27 15:10:37.036000,483,6968,-15,528,-597,248,-815,1392,19,1144,426,656,-260,6232,-116,6648,-5077,2984,-167,800,320,8184,512,4368,1403,5168,409,6192,2,-2,?
2017-03-27 15:10:37.044000,432,6968,-7,528,-627,248,-820,1392,-26,1144,371,656,-299,6232,-165,6648,-5061,2984,-185,800,279,8184,439,4368,1381,5168,384,6192,2,-2,?
2017-03-27 15:10:37.052000,360,6968,-6,528,-646,248,-827,1392,-71,1144,320,656,-336,6232,-171,6648,-4970,2984,-166,800,215,8184,447,4368,1338,5168,344,6192,2,-2,?
2017-03-27 15:10:37.061000,390,6968,-13,528,-633,248,-826,1392,-28,1144,361,656,-319,6232,-134,6648,-4890,2984,-159,800,230,8184,502,4368,1354,5168,354,6192,2,-2,?
2017-03-27 15:10:37.067000,404,6960,-11,528,-638,248,-829,1392,2,1144,398,656,-299,6232,-163,6648,-4908,2984,-201,800,245,8184,458,4368,1382,5168,344,6192,2,-3,?
2017-03-27 15:10:37.075000,367,6960,-4,456,-657,248,-837,1392,-40,1144,373,656,-302,6232,-197,6648,-4899,2984,-174,800,221,8184,418,4368,1362,5168,324,6192,1,-2,?
2017-03-27 15:10:37.084000,401,6960,-7,456,-648,248,-840,1392,-64,1144,362,656,-291,6232,-161,6648,-4855,2984,-124,800,256,8184,467,4368,1380,5168,361,6192,1,-2,?
2017-03-27 15:10:37.091000,470,6960,-8,456,-646,328,-840,1392,-42,1144,373,656,-275,6232,-134,6648,-4879,2984,-173,800,316,8184,465,4368,1438,5168,402,6192,1,-2,?
2017-03-27 15:10:37.100000,484,6960,-8,456,-671,328,-838,1320,-15,1144,373,656,-284,6232,-145,6648,-4906,2984,-220,800,332,8184,425,4368,1457,5168,406,6192,1,-2,?
2017-03-27 15:10:37.108000,452,6960,-12,456,-677,328,-818,1320,-5,1120,376,656,-298,6232,-145,6648,-4870,2984,-156,800,313,8184,461,4368,1420,5168,401,6192,1,-2,?
2017-03-27 15:10:37.115000,414,6960,-9,456,-665,328,-803,1320,-12,1120,377,648,-299,6232,-149,6648,-4870,2984,-130,800,293,8184,442,4368,1395,5168,382,6192,1,-2,?
2017-03-27 15:10:37.123000,425,6960,-5,456,-677,328,-810,1320,0,1120,388,648,-294,6208,-151,6648,-4893,2984,-179,800,308,8184,432,4368,1407,5168,376,6192,1,-1,?
2017-03-27 15:10:37.130000,448,6960,-4,456,-671,328,-795,1320,19,1120,411,648,-275,6208,-136,6648,-4870,2984,-179,800,317,8184,518,4368,1405,5168,391,6192,1,-1,?
2017-03-27 15:10:37.139000,444,6960,-5,456,-646,328,-769,1320,9,1120,407,648,-249,6208,-134,6648,-4882,5784,-204,800,309,8184,483,4368,1418,5168,393,6192,2,-1,?
2017-03-27 15:10:37.148000,433,6960,-7,456,-668,328,-766,1320,6,1120,395,648,-239,6208,-128,6648,-4898,5784,-204,920,314,8184,439,4368,1428,5168,383,6192,2,-1,?
2017-03-27 15:10:37.153000,417,6960,-8,456,-689,328,-770,1320,34,1120,410,648,-241,6208,-89,6648,-4855,5784,-106,920,314,8176,588,4368,1400,5168,386,6192,2,-1,?
2017-03-27 15:10:37.161000,415,6960,-3,456,-667,328,-772,1320,44,1120,419,648,-246,6208,-81,6648,-4896,5784,-134,920,318,8176,630,4664,1405,5168,396,6192,2,-1,?
2017-03-27 15:10:37.170000,431,6960,-3,456,-665,328,-758,1320,28,1120,405,648,-236,6208,-107,6648,-4987,5784,-231,920,332,8176,518,4664,1432,5032,393,6192,2,-1,?
2017-03-27 15:10:37.178000,431,6960,-8,456,-678,328,-741,1320,34,1120,412,648,-213,6208,-88,6648,-4935,5784,-142,896,315,8176,567,4664,1395,5032,380,6192,2,-1,?
2017-03-27 15:10:37.186000,429,6960,-6,456,-664,328,-742,1320,64,1120,445,648,-190,6208,-47,6648,-4874,5784,-70,896,305,8168,638,4664,1368,5032,376,6192,2,0,?
2017-03-27 15:10:37.195000,446,6960,-3,456,-667,328,-751,1320,74,1120,448,648,-182,6208,-62,6648,-4941,5784,-186,896,351,8168,578,4664,1429,5032,391,6192,2,0,?
2017-03-27 15:10:37.201000,433,6960,-4,456,-683,328,-740,1320,68,1120,424,648,-179,6208,-82,6648,-4912,5784,-155,896,348,8168,578,4664,1421,5032,396,6192,2,0,?
2017-03-27 15:10:37.211000,428,6960,-8,456,-661,328,-723,1320,73,1120,434,648,-180,6208,-71,6648,-4841,5784,-60,896,314,8168,634,4664,1378,5032,398,6192,2,0,?
2017-03-27 15:10:37.217000,459,6960,-13,456,-653,328,-732,1320,49,1120,442,648,-209,6208,-89,6648,-4938,5784,-182,896,350,8168,635,4664,1418,5032,410,6192,2,0,?
2017-03-27 15:10:37.225000,455,6960,-16,456,-689,328,-742,1320,11,1120,419,648,-236,6208,-121,6648,-5001,5784,-259,896,363,8168,619,4664,1428,5032,399,6192,2,0,?
2017-03-27 15:10:37.233000,425,6960,-16,456,-700,328,-726,1320,54,1120,420,648,-236,6208,-107,6648,-4903,5784,-151,896,322,8168,647,4664,1375,5032,387,6192,2,0,?
2017-03-27 15:10:37.240000,429,6960,-8,456,-669,328,-708,1320,130,1120,449,648,-216,6208,-59,6648,-4873,5784,-102,896,324,8168,706,4664,1376,5032,401,6192,2,0,?
2017-03-27 15:10:37.249000,458,6960,-4,456,-645,328,-713,1320,130,1120,468,648,-201,6208,-47,6648,-4966,5784,-185,896,364,8168,708,4664,1429,5032,415,6192,2,0,?
2017-03-27 15:10:37.256000,451,6960,-9,456,-655,328,-717,1320,97,1120,465,648,-212,6208,-69,6648,-4988,5784,-208,896,351,8168,664,4664,1410,5032,402,6192,2,0,?
2017-03-27 15:10:37.264000,423,6960,-9,456,-674,328,-707,1320,101,1120,455,648,-230,6208,-67,6648,-4949,5784,-149,896,312,8168,722,4664,1355,5032,384,6192,2,0,?
2017-03-27 15:10:37.272000,416,6960,-8,456,-677,328,-705,1320,122,1120,463,648,-225,6208,-46,6648,-4956,5784,-118,896,323,8168,829,4664,1357,5032,387,6192,2,0,?
2017-03-27 15:10:37.280000,436,6960,-10,456,-666,328,-700,1320,127,1120,483,648,-201,6208,-40,6648,-4987,5784,-104,896,348,8168,836,4664,1381,5032,397,6192,2,-1,?
2017-03-27 15:10:37.287000,455,6960,-11,456,-664,328,-696,1320,110,1120,475,648,-198,6208,-46,6648,-5022,5784,-86,896,342,8168,816,4664,1379,5032,399,6192,2,-1,?
2017-03-27 15:10:37.295000,439,6960,-6,456,-667,328,-699,1320,103,1120,467,648,-212,6208,-59,6648,-5042,5784,-87,896,328,8168,851,4664,1368,5032,396,6192,2,-1,?
2017-03-27 15:10:37.304000,442,6960,-4,456,-657,328,-687,1320,128,1120,490,648,-204,6208,-69,6648,-5026,5784,-97,896,345,8168,863,4664,1378,5032,402,6192,2,-2,?
2017-03-27 15:10:37.311000,474,6960,-9,456,-650,328,-666,1320,155,1120,508,648,-180,6208,-57,6648,-5027,5784,-92,896,363,8168,846,4664,1389,5032,404,6192,2,-2,?
2017-03-27 15:10:37.319000,468,6960,-10,456,-669,328,-667,1320,158,1120,503,648,-179,6208,-35,6648,-5080,5784,-101,896,353,8168,857,4664,1377,5032,394,6192,1,-2,?
2017-03-27 15:10:37.327000,454,6960,-9,456,-708,328,-680,1320,152,1120,502,648,-183,6208,-18,6648,-5107,5784,-133,896,344,8168,854,4664,1361,5032,398,6192,1,-2,?
2017-03-27 15:10:37.335000,471,6960,-11,456,-720,328,-676,1320,139,1120,506,648,-182,6208,-28,6648,-5100,5784,-164,896,347,8168,830,4664,1360,5032,403,6192,1,-2,?
2017-03-27 15:10:37.342000,458,6960,-13,456,-703,328,-662,1320,135,1120,500,648,-198,6208,-69,6648,-5123,5784,-196,896,342,8168,821,4664,1355,5032,393,6192,1,-2,?
2017-03-27 15:10:37.350000,428,6960,-10,456,-729,328,-659,1320,149,1120,502,648,-210,6208,-80,6648,-5151,5784,-254,896,335,8168,817,4664,1346,5032,387,6192,1,-3,?
2017-03-27 15:10:37.360000,448,6960,-4,456,-825,328,-675,1320,134,1120,500,648,-208,6208,-72,6648,-5161,5784,-348,896,333,8168,780,4664,1347,5032,381,6192,1,-3,?
2017-03-27 15:10:37.366000,462,6960,-2,456,-898,328,-680,1320,96,1120,476,648,-217,6208,-95,6648,-5174,5784,-412,896,330,8168,734,4664,1353,5032,371,6192,1,-3,?
2017-03-27 15:10:37.375000,447,6960,-6,456,-890,328,-664,1320,112,1120,480,648,-219,6208,-112,6648,-5177,5784,-402,896,350,8168,710,4664,1374,5032,386,6192,1,-3,?
2017-03-27 15:10:37.382000,450,6960,-14,456,-902,328,-663,1320,155,1120,504,648,-216,6208,-106,6648,-5163,5784,-390,896,375,8168,677,4664,1406,5032,400,6192,1,-3,?
2017-03-27 15:10:37.390000,455,6960,-10,456,-978,328,-675,1320,143,1120,501,648,-226,6208,-106,6648,-5167,5784,-418,896,369,8168,613,4664,1420,5032,374,6192,1,-3,?
2017-03-27 15:10:37.398000,458,6960,-1,456,-1015,328,-659,1320,118,1120,495,648,-212,6208,-99,6648,-5178,5784,-427,896,371,8168,566,4664,1427,5032,363,6192,1,-3,?
2017-03-27 15:10:37.406000,474,6960,-4,456,-994,328,-638,1320,133,1120,501,648,-195,6208,-99,6648,-5164,5784,-432,896,396,8168,539,4664,1446,5032,390,6192,1,-3,?
2017-03-27 15:10:37.414000,481,6960,-9,456,-1002,328,-644,1320,138,1120,488,648,-216,6208,-106,6648,-5159,5784,-484,896,395,8168,498,4664,1453,5032,392,6192,1,-2,?
2017-03-27 15:10:37.420000,475,6960,-6,456,-1031,328,-649,1320,124,1120,471,648,-229,6208,-86,6648,-5165,5784,-527,896,383,8168,468,4664,1448,5032,369,6192,1,-2,?
2017-03-27 15:10:37.429000,472,6960,-7,456,-1029,328,-640,1320,124,1120,476,648,-220,6208,-72,6648,-5158,5784,-528,896,391,8168,453,4664,1456,5032,374,6192,1,-2,?
2017-03-27 15:10:37.437000,485,6960,-7,456,-1042,328,-640,1320,128,1120,492,648,-210,6208,-92,6648,-5162,5784,-536,896,395,8168,406,4664,1481,5032,377,6192,1,-2,?
2017-03-27 15:10:37.445000,497,6960,-4,456,-1088,328,-647,1320,131,1120,507,648,-193,6208,-96,6648,-5159,5784,-546,896,392,8168,352,4664,1508,5032,322,6192,1,-1,?
2017-03-27 15:10:37.451000,489,6960,-7,456,-1118,328,-645,1320,143,1120,504,648,-179,6208,-64,6648,-5132,5784,-532,896,393,8168,334,4664,1511,5032,260,6192,2,-1,?
2017-03-27 15:10:37.459000,476,6960,-9,456,-1125,328,-639,1320,149,1120,501,648,-182,6208,-49,6648,-5119,5784,-531,896,383,8168,300,4664,1497,5032,252,6192,2,-1,?
2017-03-27 15:10:37.467000,495,6960,-5,456,-1130,328,-644,1320,140,1120,518,648,-177,6208,-61,6648,-5120,5784,-541,896,376,8168,222,4664,1505,5032,269,6192,2,-1,?
2017-03-27 15:10:37.475000,510,6960,-3,456,-1148,328,-658,1320,123,1120,496,648,-187,6208,-79,6648,-5114,5784,-542,896,380,8168,154,4664,1513,5032,261,6192,2,0,?
2017-03-27 15:10:37.484000,467,6960,-3,456,-1166,328,-652,1320,120,1120,446,648,-221,6208,-90,6648,-5115,5784,-556,896,368,8168,111,4664,1482,5032,238,6192,2,0,?
2017-03-27 15:10:37.492000,470,6960,-1,456,-1146,328,-612,1320,161,1120,487,648,-205,6208,-74,6648,-5096,5784,-552,896,383,8168,84,4664,1475,5032,262,6192,2,0,?
2017-03-27 15:10:37.498000,525,6960,-2,456,-1113,328,-606,1320,186,1120,547,648,-170,6208,-61,6648,-5072,5784,-539,896,418,8168,66,4664,1497,5032,298,6192,2,0,?
2017-03-27 15:10:37.505000,504,6960,-6,456,-1133,328,-638,1320,152,1120,513,648,-190,6208,-93,6648,-5101,5784,-578,896,397,8168,35,4664,1480,5032,272,6192,2,0,?
2017-03-27 15:10:37.513000,448,6960,-10,456,-1166,328,-634,1320,133,1120,473,648,-225,6208,-130,6648,-5123,5784,-642,896,351,8168,2,4664,1447,5032,233,6192,2,-1,?
2017-03-27 15:10:37.522000,480,6960,-8,456,-1150,328,-617,1320,149,1120,506,648,-211,6208,-108,6648,-5100,5784,-660,896,365,8168,-4,4664,1463,5032,263,6192,2,-1,?
2017-03-27 15:10:37.529000,531,6960,-4,456,-1128,328,-634,1320,162,1120,548,648,-177,6208,-69,6648,-5077,5784,-641,896,406,8168,4,4664,1497,5032,305,6192,2,-1,?
2017-03-27 15:10:37.537000,495,6960,-8,456,-1150,328,-648,1320,164,1120,536,648,-186,6208,-91,6648,-5070,5784,-644,896,393,8168,-3,4664,1485,5032,274,6192,2,-2,?
2017-03-27 15:10:37.544000,457,6960,-12,456,-1164,328,-642,1320,145,1120,483,648,-216,6208,-121,6648,-5073,5784,-669,896,362,8168,-26,4664,1455,5032,239,6192,2,-2,?
2017-03-27 15:10:37.552000,463,6960,-5,456,-1144,328,-657,1320,123,1120,456,648,-223,6208,-113,6648,-5088,5784,-683,896,359,8168,-77,4664,1455,5032,248,6192,2,-2,?
2017-03-27 15:10:37.559000,475,6960,3,456,-1120,328,-660,1320,142,1120,483,648,-206,6208,-99,6648,-5081,5784,-679,896,371,8168,-133,4664,1467,5032,265,6192,2,-2,?
2017-03-27 15:10:37.568000,480,6968,-5,456,-1101,328,-646,1320,174,1120,507,648,-195,6208,-90,6648,-5048,5784,-660,896,386,8168,-135,4664,1467,5032,269,6192,2,-2,?
2017-03-27 15:10:37.575000,471,6968,-12,456,-1104,328,-655,1320,171,1120,509,648,-199,6208,-98,6648,-5045,5784,-656,896,381,8168,-124,4664,1461,5032,254,6192,1,-3,?
2017-03-27 15:10:37.583000,456,6968,-12,456,-1136,328,-672,1320,139,1120,491,648,-210,6208,-145,6648,-5067,5784,-678,896,353,8168,-148,4664,1454,5032,232,6200,1,-3,?
2017-03-27 15:10:37.591000,457,6968,-14,456,-1147,328,-693,1320,103,1120,441,648,-227,6208,-173,6648,-5060,5784,-693,896,331,8168,-175,4664,1438,5032,228,6200,1,-3,?
2017-03-27 15:10:37.599000,439,6968,-13,456,-1119,328,-704,1288,94,1120,409,648,-245,6208,-148,6648,-5029,5784,-681,896,330,8168,-197,4664,1427,5032,231,6200,1,-3,?
2017-03-27 15:10:37.607000,394,6968,-8,456,-1106,328,-703,1288,86,1120,404,648,-284,6208,-159,6648,-5028,5784,-679,896,324,8168,-230,4664,1418,5032,215,6200,1,-4,?
2017-03-27 15:10:37.615000,386,6968,-9,456,-1125,328,-732,1288,63,1120,398,688,-313,6208,-220,6648,-5048,5784,-680,896,321,8168,-247,4664,1417,5032,209,6200,1,-4,?
2017-03-27 15:10:37.624000,399,6968,-13,456,-1136,328,-793,1288,44,1120,395,688,-308,6360,-242,6648,-5055,5784,-676,896,317,8168,-274,4664,1416,5032,219,6200,1,-4,?
2017-03-27 15:10:37.630000,388,6968,-12,456,-1130,328,-826,1288,25,1120,373,688,-308,6360,-227,6760,-5027,5784,-691,896,297,8168,-324,4664,1402,5032,223,6200,1,-4,?
2017-03-27 15:10:37.638000,381,6968,-11,456,-1119,328,-816,1288,-1,1120,326,688,-322,6360,-232,6760,-4975,5808,-704,896,301,8168,-328,4664,1403,5032,221,6200,1,-3,?
2017-03-27 15:10:37.646000,382,6968,-17,456,-1130,328,-827,1288,-37,1120,294,688,-346,6360,-283,6760,-4971,5808,-720,912,300,8168,-322,4664,1409,5032,207,6200,1,-3,?
2017-03-27 15:10:37.654000,358,6968,-18,456,-1174,328,-859,1288,-55,1120,294,688,-370,6360,-325,6760,-4990,5808,-767,912,258,8176,-371,4664,1394,5032,176,6200,1,-3,?
2017-03-27 15:10:37.662000,294,6968,-12,456,-1196,328,-859,1288,-40,1120,289,688,-389,6360,-319,6760,-4933,5808,-799,912,209,8176,-382,4552,1364,5032,134,6200,1,-3,?
2017-03-27 15:10:37.670000,288,6968,-10,456,-1142,328,-850,1288,-42,1120,268,688,-399,6360,-320,6760,-4874,5808,-780,912,214,8176,-348,4552,1374,5024,139,6200,1,-3,?
2017-03-27 15:10:37.677000,412,6968,-15,456,-1129,328,-872,1288,-48,1120,287,688,-377,6360,-321,6760,-4879,5808,-755,920,273,8176,-373,4552,1435,5024,209,6200,1,-3,?
2017-03-27 15:10:37.685000,455,6968,-18,456,-1202,328,-875,1288,-38,1120,312,688,-354,6360,-300,6760,-4869,5808,-770,920,282,8160,-413,4552,1448,5024,212,6200,1,-2,?
2017-03-27 15:10:37.693000,344,6968,-8,456,-1191,328,-845,1288,-49,1120,275,688,-364,6360,-297,6760,-4852,5808,-794,920,229,8160,-436,4568,1406,5024,153,6200,1,-2,?
2017-03-27 15:10:37.701000,339,6968,-5,456,-1108,328,-812,1288,-45,1120,268,688,-354,6360,-291,6760,-4824,5808,-765,920,232,8160,-477,4568,1408,5024,172,6200,1,-2,?
2017-03-27 15:10:37.709000,411,6968,-19,456,-1136,328,-801,1288,-19,1120,311,688,-317,6360,-278,6760,-4780,5808,-743,920,273,8160,-504,4568,1433,5024,211,6200,1,-1,?
2017-03-27 15:10:37.716000,378,6968,-22,456,-1201,328,-832,1288,-54,1120,283,688,-342,6360,-330,6760,-4805,5808,-799,920,241,8160,-539,4568,1410,5024,172,6200,1,-1,?
2017-03-27 15:10:37.724000,311,6968,-11,456,-1159,328,-841,1288,-100,1120,230,688,-397,6360,-381,6760,-4881,5808,-850,920,170,8160,-637,4568,1369,5024,120,6200,1,0,?
2017-03-27 15:10:37.732000,324,6968,-6,456,-1096,328,-753,1288,-69,1120,269,688,-377,6360,-320,6760,-4851,5808,-804,920,175,8160,-645,4568,1370,5024,125,6200,1,0,?
2017-03-27 15:10:37.740000,381,6968,-11,456,-1102,328,-688,1288,-31,1120,326,688,-330,6360,-262,6760,-4761,5808,-719,920,244,8160,-494,4568,1415,5024,162,6200,1,0,?
2017-03-27 15:10:37.748000,379,6968,-16,456,-1153,328,-715,1288,-66,1120,283,688,-365,6360,-324,6760,-4774,5808,-737,920,233,8160,-458,4568,1408,5024,164,6200,1,0,?
2017-03-27 15:10:37.756000,327,6968,-14,456,-1180,328,-689,1288,-120,1120,209,688,-424,6360,-394,6760,-4797,5808,-798,920,155,8160,-534,4568,1359,5024,129,6200,1,0,?
2017-03-27 15:10:37.763000,324,6968,-11,456,-1162,328,-589,1288,-115,1120,222,688,-391,6360,-379,6760,-4724,5808,-802,920,172,8160,-551,4568,1408,5024,110,6200,2,1,?
2017-03-27 15:10:37.771000,321,6968,-11,456,-1160,328,-545,1288,-111,1120,245,688,-361,6360,-371,6760,-4631,5808,-783,920,170,8160,-553,4568,1442,5024,89,6200,2,1,?
2017-03-27 15:10:37.779000,312,6968,-14,456,-1171,328,-575,1288,-163,1120,188,688,-422,6360,-422,6760,-4594,5808,-853,920,111,8160,-495,4568,1372,5024,74,6200,2,1,?
2017-03-27 15:10:37.787000,356,6968,-21,456,-1170,328,-608,1288,-202,1120,137,688,-467,6360,-460,6760,-4604,5808,-1006,920,136,8160,-420,4568,1362,5024,87,6200,2,1,?
2017-03-27 15:10:37.795000,311,6968,-23,456,-1159,328,-595,1288,-214,1120,130,688,-477,6360,-478,6760,-4617,5808,-1097,920,123,8160,-434,4568,1388,5024,47,6200,2,0,?
2017-03-27 15:10:37.802000,166,6968,-12,456,-1105,328,-547,1288,-247,1120,93,688,-519,6360,-513,6760,-4590,5808,-1102,920,-6,8160,-341,4568,1311,5024,-30,6200,2,0,?
2017-03-27 15:10:37.810000,159,6968,-10,456,-1097,328,-528,1288,-289,1120,44,688,-571,6360,-559,6760,-4583,5808,-1106,920,-61,8160,-101,4568,1251,5024,-37,6200,2,0,?
2017-03-27 15:10:37.818000,234,6968,-16,456,-1131,328,-533,1288,-289,1120,42,688,-564,6360,-581,6760,-4664,5808,-1159,920,-12,8160,-89,4568,1317,5024,-16,6200,2,0,?
2017-03-27 15:10:37.828000,184,6968,-14,456,-1052,328,-497,1288,-262,1120,58,688,-548,6360,-571,6760,-4671,5808,-1125,920,-28,8160,-117,4568,1317,5024,-57,6200,2,-1,?
2017-03-27 15:10:37.834000,141,6968,-14,456,-964,328,-492,1288,-278,1120,71,688,-581,6360,-578,6760,-4609,5808,-1064,920,-71,8160,111,4568,1234,5024,-107,6200,2,-1,?
2017-03-27 15:10:37.841000,241,6968,-18,456,-1022,328,-527,1288,-342,1120,57,688,-601,6360,-620,6760,-4684,5808,-1112,920,-40,8160,100,4568,1283,5024,-70,6200,2,-2,?
2017-03-27 15:10:37.848000,252,6968,-15,456,-1066,328,-472,1288,-355,1120,-3,688,-602,6360,-646,6760,-4762,5808,-1117,920,-64,8160,-75,4568,1331,5024,-64,6200,2,-2,?
2017-03-27 15:10:37.857000,165,6968,-12,456,-973,328,-411,1288,-273,1120,1,688,-584,6360,-591,6760,-4663,5808,-1008,920,-115,8160,253,4568,1267,5024,-125,6200,2,-3,?
2017-03-27 15:10:37.864000,180,6968,-16,456,-944,328,-420,1288,-231,1120,56,688,-549,6360,-518,6760,-4547,5808,-965,920,-97,8160,651,4568,1259,5024,-137,6200,2,-3,?
2017-03-27 15:10:37.872000,153,6968,-10,456,-1007,328,-368,1288,-299,1120,22,688,-564,6360,-548,6760,-4572,5808,-1023,920,-97,8160,524,4568,1300,5024,-161,6200,2,-3,?
2017-03-27 15:10:37.880000,37,6968,-5,456,-962,328,-289,1288,-363,1120,-47,688,-630,6360,-648,6760,-4648,5808,-988,920,-177,8160,487,4568,1227,5024,-218,6200,2,-3,?
2017-03-27 15:10:37.889000,104,6968,-6,456,-827,328,-300,1288,-328,1120,0,688,-615,6360,-654,6760,-4668,5808,-945,920,-149,8160,716,4568,1239,5024,-157,6200,2,-4,?
2017-03-27 15:10:37.896000,221,6968,1,456,-785,328,-324,1288,-299,1120,67,688,-558,6360,-602,6760,-4644,5808,-883,920,-36,8160,714,4568,1350,5024,-74,6200,2,-4,?
2017-03-27 15:10:37.908000,183,6968,-7,456,-848,328,-317,1288,-324,1120,55,688,-577,6360,-619,6760,-4642,5808,-681,920,-93,8160,670,4568,1293,5024,-131,6200,2,-4,?
2017-03-27 15:10:37.913000,177,6968,-14,456,-840,328,-267,1288,-299,1120,64,688,-576,6360,-613,6760,-4619,5808,-563,920,-193,8160,799,4568,1205,5024,-156,6200,2,-4,?
2017-03-27 15:10:37.920000,155,6968,0,456,-736,328,-161,1288,-287,1120,58,688,-564,6360,-585,6760,-4562,5808,-639,920,-203,8160,851,4568,1201,5024,-129,6200,3,-4,?
2017-03-27 15:10:37.929000,84,6968,-1,456,-677,328,-153,1288,-346,1120,3,688,-612,6360,-632,6760,-4576,5808,-698,920,-193,8160,821,4568,1200,5024,-156,6200,3,-4,?
2017-03-27 15:10:37.935000,189,6968,-22,456,-736,328,-212,1288,-351,1120,34,688,-599,6360,-636,6760,-4615,5808,-649,920,-174,8160,773,4568,1235,5024,-147,6200,3,-3,?
2017-03-27 15:10:37.946000,283,6968,-12,456,-764,328,-135,1288,-310,1120,94,688,-539,6360,-581,6760,-4573,5808,-592,920,-160,8160,779,4568,1254,5024,-116,6200,3,-3,?
2017-03-27 15:10:37.953000,159,6968,15,456,-672,328,-23,1288,-338,1120,47,688,-569,6360,-611,6760,-4543,5808,-579,920,-178,8160,927,4568,1198,5024,-140,6200,3,-3,?
2017-03-27 15:10:37.962000,6,6968,8,456,-632,328,12,1288,-397,1120,-39,688,-648,6360,-672,6760,-4577,5808,-683,920,-246,8160,916,4568,1132,5024,-206,6200,3,-3,?
2017-03-27 15:10:37.969000,43,6968,-6,456,-619,328,123,1288,-372,1120,-10,688,-640,6360,-625,6760,-4564,5808,-698,920,-235,8160,800,4568,1159,5024,-193,6200,3,-3,?
2017-03-27 15:10:37.978000,154,6968,-7,456,-538,328,263,1288,-326,1120,56,688,-579,6360,-558,6760,-4527,5808,-529,920,-169,8160,886,4568,1207,5024,-137,6200,3,-3,?
2017-03-27 15:10:37.984000,137,6968,-11,456,-557,328,240,1288,-366,1120,17,688,-585,6360,-593,6760,-4545,5808,-531,920,-218,8160,913,4568,1172,5024,-163,6200,3,-2,?
2017-03-27 15:10:37.991000,99,6968,-6,456,-612,328,219,1288,-420,1120,-25,688,-634,6360,-651,6760,-4569,5808,-700,920,-247,8160,819,4568,1147,5024,-172,6200,3,-2,?
2017-03-27 15:10:37.999000,119,6968,-4,456,-616,328,298,1288,-429,1120,-11,688,-660,6360,-663,6760,-4567,5808,-695,920,-220,8160,838,4568,1147,5024,-151,6200,3,-2,?
2017-03-27 15:10:38.008000,163,6968,-11,456,-670,328,335,1288,-415,1120,23,688,-650,6360,-633,6760,-4543,5808,-575,920,-232,8160,860,4568,1158,5024,-167,6200,3,-1,?
2017-03-27 15:10:38.014000,244,6968,1,456,-621,328,358,1288,-369,1120,93,688,-578,6360,-545,6760,-4484,5808,-546,920,-181,8160,838,4568,1229,5024,-127,6200,3,-1,?
2017-03-27 15:10:38.023000,244,6968,11,456,-508,328,421,1288,-361,1120,107,688,-528,6360,-522,6760,-4456,5808,-583,920,-121,8160,825,4568,1259,5024,-85,6200,3,-1,?
2017-03-27 15:10:38.031000,137,6968,-6,456,-570,328,452,1288,-426,1120,46,688,-552,6360,-594,6760,-4471,5808,-545,920,-194,8160,782,4568,1182,5024,-139,6200,3,0,?
2017-03-27 15:10:38.038000,93,6968,-11,456,-648,328,454,1288,-449,1120,37,688,-583,6360,-603,6760,-4464,5808,-485,920,-262,8160,859,4568,1130,5024,-189,6200,3,0,?
2017-03-27 15:10:38.047000,156,6968,1,456,-577,328,460,1288,-419,1120,67,688,-586,6360,-578,6760,-4515,5808,-613,920,-215,8160,881,4568,1192,5024,-163,6200,3,0,?
2017-03-27 15:10:38.056000,197,6968,-10,456,-567,328,452,1288,-443,1120,28,688,-598,6360,-635,6760,-4569,5808,-747,920,-212,8160,700,4568,1216,5024,-163,6200,2,0,?
2017-03-27 15:10:38.064000,195,6968,-11,456,-611,328,455,1288,-459,1120,12,688,-598,6360,-622,6760,-4437,5808,-566,920,-234,8160,857,4568,1178,5024,-163,6200,2,0,?
2017-03-27 15:10:38.070000,197,6968,-4,456,-622,328,457,1288,-410,1120,59,688,-555,6360,-527,6760,-4339,5808,-421,920,-181,8160,1137,4568,1198,5024,-129,6200,2,0,?
2017-03-27 15:10:38.079000,189,7112,-4,456,-643,328,450,1288,-393,1120,65,688,-531,6360,-537,6760,-4447,5808,-619,920,-159,8160,826,4568,1255,5024,-128,6200,2,0,?
2017-03-27 15:10:38.085000,204,7112,8,656,-569,328,473,1288,-405,1120,62,688,-531,6360,-569,6760,-4458,5808,-686,920,-155,8160,611,4568,1274,5024,-108,6200,2,-1,?
2017-03-27 15:10:38.093000,182,7112,5,656,-517,328,498,1288,-393,1120,68,688,-546,6360,-526,6760,-4334,5808,-466,920,-162,8160,978,4568,1213,5024,-118,6368,2,-1,?
2017-03-27 15:10:38.103000,165,7112,-18,656,-660,312,478,1288,-386,1120,43,688,-576,6360,-529,6760,-4353,5808,-488,920,-195,8160,1030,4568,1182,5024,-172,6368,2,-1,?
2017-03-27 15:10:38.108000,248,7112,-12,656,-710,312,459,1216,-381,1120,56,688,-565,6360,-565,6760,-4426,5808,-686,920,-143,8160,755,4568,1269,5024,-116,6368,2,-1,?
2017-03-27 15:10:38.116000,298,7112,15,656,-577,312,480,1216,-322,1232,150,688,-499,6360,-510,6760,-4353,5808,-546,920,-69,8160,840,4568,1321,5024,-26,6368,2,-1,?
2017-03-27 15:10:38.124000,177,7112,8,656,-556,312,482,1216,-314,1232,147,856,-499,6360,-486,6760,-4323,5808,-394,920,-163,8160,907,4568,1230,5024,-118,6368,2,-1,?
2017-03-27 15:10:38.131000,94,7112,-9,656,-612,312,485,1216,-381,1232,43,856,-567,6424,-554,6760,-4386,5808,-520,920,-275,8160,775,4568,1158,5024,-210,6368,2,-1,?
2017-03-27 15:10:38.140000,282,7112,-7,656,-606,312,492,1216,-355,1232,91,856,-539,6424,-552,6616,-4370,5808,-570,920,-145,8160,830,4568,1249,5024,-72,6368,1,-1,?
2017-03-27 15:10:38.148000,344,7112,-3,656,-634,312,467,1216,-319,1232,145,856,-505,6424,-517,6616,-4315,5896,-510,920,-87,8160,927,4568,1250,5024,-30,6368,2,-2,?
2017-03-27 15:10:38.156000,185,7112,8,656,-607,312,481,1216,-374,1232,77,856,-559,6424,-537,6616,-4315,5896,-491,584,-199,8160,915,4568,1159,5024,-120,6368,2,-2,?
2017-03-27 15:10:38.163000,189,7112,15,656,-461,312,559,1216,-358,1232,101,856,-559,6424,-541,6616,-4341,5896,-488,584,-180,360,870,4568,1210,5024,-94,6368,2,-2,?
2017-03-27 15:10:38.172000,237,7112,11,656,-438,312,557,1216,-310,1232,122,856,-541,6424,-545,6616,-4352,5896,-565,584,-162,360,793,4272,1225,5024,-63,6368,2,-2,?
2017-03-27 15:10:38.180000,243,7112,5,656,-530,312,472,1216,-352,1232,26,856,-581,6424,-585,6616,-4379,5896,-713,584,-184,360,723,4272,1197,5200,-43,6368,2,-2,?
2017-03-27 15:10:38.187000,264,7112,-1,656,-506,312,460,1216,-371,1232,3,856,-582,6424,-588,6616,-4411,5896,-779,600,-157,360,660,4272,1238,5200,-41,6368,2,-2,?
2017-03-27 15:10:38.196000,235,7112,4,656,-441,312,457,1216,-352,1232,37,856,-575,6424,-575,6616,-4394,5896,-793,600,-208,360,656,4272,1196,5200,-118,6368,2,-2,?
2017-03-27 15:10:38.203000,216,7112,17,656,-438,312,410,1216,-371,1232,26,856,-599,6424,-596,6616,-4350,5896,-786,600,-264,360,757,4272,1133,5200,-118,6368,2,-2,?
2017-03-27 15:10:38.212000,237,7112,11,656,-475,312,417,1216,-362,1232,51,856,-576,6424,-583,6616,-4326,5896,-746,600,-229,360,790,4272,1182,5200,-55,6368,2,-2,?
2017-03-27 15:10:38.218000,194,7112,3,656,-493,312,462,1216,-324,1232,77,856,-549,6424,-556,6616,-4337,5896,-816,600,-229,360,710,4272,1220,5200,-102,6368,2,-2,?
2017-03-27 15:10:38.227000,165,7112,8,656,-472,312,458,1216,-337,1232,56,856,-573,6424,-555,6616,-4322,5896,-842,600,-260,360,789,4272,1179,5200,-149,6368,2,-2,?
2017-03-27 15:10:38.236000,202,7112,4,656,-482,312,396,1216,-373,1232,47,856,-589,6424,-563,6616,-4282,5896,-752,600,-257,360,869,4272,1170,5200,-117,6368,2,-2,?
2017-03-27 15:10:38.243000,221,7112,-1,656,-517,312,365,1216,-353,1232,73,856,-561,6424,-555,6616,-4277,5896,-730,600,-253,360,758,4272,1220,5200,-95,6368,2,-2,?
2017-03-27 15:10:38.250000,255,7112,5,656,-516,312,365,1216,-294,1232,112,856,-545,6424,-530,6616,-4314,5896,-771,600,-213,360,725,4272,1266,5200,-78,6368,2,-2,?
2017-03-27 15:10:38.257000,232,7112,6,656,-499,312,318,1216,-292,1232,97,856,-579,6424,-518,6616,-4341,5896,-763,600,-215,360,820,4272,1228,5200,-100,6368,2,-2,?
2017-03-27 15:10:38.265000,167,7112,7,656,-487,312,237,1216,-319,1232,54,856,-610,6424,-520,6616,-4326,5896,-718,600,-273,360,847,4272,1176,5200,-133,6368,3,-1,?
2017-03-27 15:10:38.273000,211,7112,9,656,-479,312,176,1216,-296,1232,77,856,-576,6424,-516,6616,-4330,5896,-717,600,-235,360,794,4272,1230,5200,-96,6368,3,-1,?
2017-03-27 15:10:38.281000,229,7112,6,656,-509,312,111,1216,-267,1232,125,856,-528,6424,-495,6616,-4373,5896,-757,600,-213,360,760,4272,1255,5200,-101,6368,3,-1,?
2017-03-27 15:10:38.289000,205,7112,8,656,-520,312,17,1216,-269,1232,133,856,-509,6424,-463,6616,-4363,5896,-745,600,-236,360,764,4272,1234,5200,-114,6368,3,-1,?
2017-03-27 15:10:38.298000,244,7112,11,656,-464,312,-79,1216,-264,1232,130,856,-501,6424,-451,6616,-4284,5896,-678,600,-182,360,774,4272,1268,5200,-56,6368,3,-1,?
2017-03-27 15:10:38.303000,275,7112,13,656,-433,312,-180,1216,-254,1232,138,856,-500,6424,-449,6616,-4204,5896,-652,600,-135,360,770,4272,1291,5200,-21,6368,3,-1,?
2017-03-27 15:10:38.311000,268,7112,10,656,-452,312,-279,1216,-241,1232,160,856,-489,6424,-422,6616,-4084,5896,-671,600,-144,360,735,4272,1290,5200,-26,6368,3,-1,?
2017-03-27 15:10:38.320000,278,7112,8,656,-473,312,-358,1216,-205,1232,197,856,-472,6424,-389,6616,-3853,5896,-638,600,-126,360,742,4272,1319,5200,-5,6368,3,-1,?
2017-03-27 15:10:38.328000,314,7112,9,656,-524,312,-435,1216,-165,1232,223,856,-453,6424,-358,6616,-3632,5896,-622,600,-84,360,757,4272,1363,5200,35,6368,2,-2,?
2017-03-27 15:10:38.334000,352,7112,11,656,-573,312,-497,1216,-141,1232,235,856,-425,6424,-312,6616,-3558,5896,-685,600,-48,360,714,4272,1394,5200,67,6368,2,-2,?
2017-03-27 15:10:38.342000,378,7112,12,656,-549,312,-530,1216,-127,1232,241,856,-408,6424,-276,6616,-3548,5896,-712,600,-7,360,709,4272,1407,5200,105,6368,2,-2,?
2017-03-27 15:10:38.350000,402,7112,12,656,-508,312,-544,1216,-96,1232,273,856,-384,6424,-243,6616,-3515,5896,-664,600,42,360,762,4272,1428,5200,146,6368,2,-2,?
2017-03-27 15:10:38.359000,451,7112,15,656,-495,312,-540,1216,-42,1232,332,856,-315,6424,-154,6616,-3505,5896,-630,600,108,360,801,4272,1483,5200,194,6368,2,-2,?
2017-03-27 15:10:38.367000,506,7112,14,656,-466,312,-523,1216,-4,1232,363,856,-250,6424,-92,6616,-3511,5896,-626,600,183,360,791,4272,1532,5200,252,6368,2,-2,?
2017-03-27 15:10:38.375000,516,7112,10,656,-425,312,-508,1216,20,1232,373,856,-239,6424,-152,6616,-3440,5896,-596,600,213,360,795,4272,1531,5200,285,6368,2,-2,?
2017-03-27 15:10:38.382000,501,7112,9,656,-415,312,-495,1216,54,1232,412,856,-218,6424,-185,6616,-3280,5896,-583,600,228,360,808,4272,1542,5200,293,6368,2,-2,?
2017-03-27 15:10:38.390000,512,7112,10,656,-410,312,-492,1216,71,1232,445,856,-180,6424,-127,6616,-3187,5896,-634,600,289,360,717,4272,1611,5200,322,6368,2,-2,?
2017-03-27 15:10:38.399000,518,7112,7,656,-389,312,-492,1216,64,1232,433,856,-169,6424,-76,6616,-3145,5896,-604,600,301,360,731,4272,1600,5200,349,6368,3,-2,?
2017-03-27 15:10:38.407000,486,7112,0,656,-401,312,-487,1216,86,1232,441,856,-167,6424,-40,6616,-3051,5896,-569,600,262,360,905,4272,1529,5200,348,6368,3,-3,?
2017-03-27 15:10:38.413000,483,7112,2,656,-420,312,-490,1216,112,1232,476,856,-154,6424,-33,6616,-3037,5896,-737,600,306,360,886,4272,1571,5200,364,6368,2,-3,?
2017-03-27 15:10:38.422000,524,7112,5,656,-388,312,-491,1216,109,1232,478,856,-146,6424,-47,6616,-3118,5896,-865,600,369,360,721,4272,1649,5200,401,6368,2,-3,?
2017-03-27 15:10:38.429000,532,7112,3,656,-359,312,-459,1216,124,1232,465,856,-132,6424,-1,6616,-3110,5896,-688,600,340,360,790,4272,1611,5200,418,6368,2,-2,?
2017-03-27 15:10:38.437000,511,7112,2,656,-368,312,-430,1216,149,1232,472,856,-112,6424,73,6616,-3051,5896,-520,600,318,360,955,4272,1558,5200,420,6368,2,-2,?
2017-03-27 15:10:38.446000,535,7112,6,656,-348,312,-423,1216,157,1232,494,856,-89,6424,86,6616,-3099,5896,-602,600,385,360,913,4272,1618,5200,438,6368,2,-2,?
2017-03-27 15:10:38.455000,583,7112,9,656,-299,312,-405,1216,183,1232,534,856,-47,6424,99,6616,-3185,5896,-632,600,445,360,880,4272,1671,5200,465,6368,2,-2,?
2017-03-27 15:10:38.460000,597,7112,10,656,-282,312,-373,1216,229,1232,578,856,-27,6424,110,6616,-3263,5896,-518,600,464,360,962,4272,1650,5200,485,6368,2,-2,?
2017-03-27 15:10:38.467000,601,7112,10,656,-273,312,-358,1216,256,1232,617,856,-21,6424,97,6616,-3330,5896,-475,600,483,360,995,4272,1637,5200,502,6368,2,-1,?
2017-03-27 15:10:38.476000,614,7112,8,656,-268,312,-342,1216,270,1232,636,856,2,6424,134,6616,-3308,5896,-492,600,496,360,991,4272,1647,5200,513,6368,2,-1,?
2017-03-27 15:10:38.483000,628,7112,7,656,-262,312,-319,1216,282,1232,634,856,13,6424,176,6616,-3287,5896,-482,600,514,360,1006,4272,1654,5200,522,6368,2,-1,?
2017-03-27 15:10:38.492000,631,7112,8,656,-257,312,-314,1216,291,1232,633,856,2,6424,163,6616,-3336,5896,-476,600,527,360,1022,4272,1645,5200,530,6368,2,-1,?
2017-03-27 15:10:38.497000,623,7112,10,656,-298,312,-323,1216,285,1232,621,856,-1,6424,142,6616,-3365,5896,-490,600,513,360,1015,4272,1627,5200,529,6368,2,-1,?
2017-03-27 15:10:38.508000,599,7112,9,656,-182,312,-334,1216,266,1232,605,856,9,6424,149,6616,-3375,5896,-504,600,485,360,1014,4272,1601,5200,512,6368,2,-1,?
2017-03-27 15:10:38.514000,568,7112,5,656,221,312,-353,1216,271,1232,622,856,10,6424,159,6616,-3433,5896,-540,600,476,360,1010,4272,1594,5200,489,6368,2,-1,?
2017-03-27 15:10:38.522000,564,7112,5,656,542,312,-383,1216,283,1232,629,856,10,6424,146,6616,-3505,5896,-544,600,493,360,999,4272,1604,5200,489,6368,2,-1,?
2017-03-27 15:10:38.530000,571,7112,4,656,538,312,-408,1216,260,1232,602,856,-13,6424,106,6616,-3567,5896,-519,600,485,360,982,4272,1586,5200,495,6368,2,-1,?
2017-03-27 15:10:38.538000,565,7112,1,656,475,312,-428,1216,229,1232,589,856,-52,6424,65,6616,-3659,5896,-559,600,459,360,947,4272,1566,5200,485,6368,2,-1,?
2017-03-27 15:10:38.545000,552,7112,3,656,481,312,-444,1216,226,1232,578,856,-68,6424,54,6616,-3745,5896,-612,600,451,360,922,4272,1556,5200,461,6368,2,-1,?
2017-03-27 15:10:38.553000,538,7112,6,656,421,312,-455,1216,223,1232,559,856,-75,6424,58,6616,-3781,5896,-620,600,441,360,902,4272,1548,5200,443,6368,2,-1,?
2017-03-27 15:10:38.561000,535,7112,2,656,336,312,-467,1216,215,1232,578,856,-80,6424,59,6616,-3800,5896,-641,600,419,360,869,4272,1551,5200,438,6368,2,-1,?
2017-03-27 15:10:38.571000,540,7112,-3,656,296,312,-478,1216,221,1232,595,856,-76,6424,57,6616,-3836,5896,-672,600,416,360,845,4272,1560,5200,435,6368,2,-1,?
2017-03-27 15:10:38.578000,532,7104,0,656,257,312,-493,1216,222,1232,572,856,-73,6424,55,6616,-3854,5896,-637,600,430,360,834,4272,1555,5200,431,6368,2,-1,?
2017-03-27 15:10:38.585000,532,7104,6,568,215,312,-498,1216,225,1232,571,856,-78,6424,70,6616,-3834,5896,-560,600,445,360,827,4272,1550,5200,443,6368,2,-2,?
2017-03-27 15:10:38.594000,561,7104,8,568,176,312,-487,1216,244,1232,596,856,-63,6424,96,6616,-3825,5896,-498,600,485,360,832,4272,1574,5200,478,6272,2,-2,?
2017-03-27 15:10:38.601000,576,7104,8,568,139,520,-484,1216,253,1232,601,856,-32,6424,110,6616,-3837,5896,-426,600,523,360,838,4272,1599,5200,498,6272,2,-2,?
2017-03-27 15:10:38.610000,571,7104,6,568,84,520,-498,1272,246,1232,607,856,-16,6424,124,6616,-3824,5896,-340,600,535,360,838,4272,1600,5200,495,6272,2,-2,?
2017-03-27 15:10:38.617000,572,7104,3,568,10,520,-509,1272,249,1168,626,856,-5,6424,143,6616,-3801,5896,-302,600,550,360,851,4272,1596,5200,497,6272,2,-2,?
2017-03-27 15:10:38.626000,572,7104,0,568,-10,520,-514,1272,254,1168,637,776,6,6424,151,6616,-3809,5896,-332,600,561,360,844,4272,1614,5200,500,6272,2,-2,?
2017-03-27 15:10:38.632000,574,7104,-1,568,-126,520,-524,1272,247,1168,638,776,1,6416,148,6616,-3839,5896,-375,600,560,360,812,4272,1636,5200,493,6272,3,-2,?
2017-03-27 15:10:38.641000,584,7104,1,568,-494,520,-524,1272,245,1168,640,776,-10,6416,149,6592,-3843,5896,-370,600,564,360,811,4272,1626,5200,492,6272,3,-2,?
2017-03-27 15:10:38.648000,585,7104,3,568,-806,520,-512,1272,254,1168,641,776,-6,6416,156,6592,-3815,5704,-329,600,566,360,832,4272,1601,5200,504,6272,3,-3,?
2017-03-27 15:10:38.655000,587,7104,3,568,-816,520,-506,1272,249,1168,636,776,2,6416,148,6592,-3819,5704,-325,512,569,360,821,4272,1609,5200,513,6272,3,-3,?
2017-03-27 15:10:38.664000,600,7104,0,568,-776,520,-513,1272,239,1168,630,776,1,6416,132,6592,-3851,5704,-353,512,580,144,807,4272,1633,5200,522,6272,3,-3,?
2017-03-27 15:10:38.674000,599,7104,-1,568,-824,520,-525,1272,242,1168,630,776,-9,6416,121,6592,-3856,5704,-359,512,583,144,810,4368,1626,5200,527,6272,3,-3,?
2017-03-27 15:10:38.678000,593,7104,3,568,-823,520,-515,1272,247,1168,624,776,-13,6416,125,6592,-3839,5704,-355,512,587,144,806,4368,1621,5184,530,6272,3,-2,?
2017-03-27 15:10:38.686000,597,7104,0,568,-786,520,-492,1272,249,1168,620,776,8,6416,146,6592,-3816,5704,-357,512,599,144,807,4368,1638,5184,535,6272,2,-2,?
2017-03-27 15:10:38.694000,604,7104,-1,568,-779,520,-486,1272,260,1168,641,776,33,6416,161,6592,-3798,5704,-342,512,603,136,815,4368,1640,5184,547,6272,2,-2,?
2017-03-27 15:10:38.702000,616,7104,7,568,-779,520,-491,1272,277,1168,665,776,32,6416,128,6592,-3817,5704,-353,512,605,136,793,4360,1637,5184,558,6272,2,-2,?
2017-03-27 15:10:38.710000,631,7104,8,568,-774,520,-485,1272,277,1168,670,776,28,6416,102,6592,-3822,5704,-377,512,627,136,779,4360,1653,5184,564,6272,2,-2,?
2017-03-27 15:10:38.716000,625,7104,0,568,-767,520,-472,1272,282,1168,680,776,38,6416,126,6592,-3788,5704,-346,512,640,136,787,4360,1650,5184,562,6272,2,-1,?
2017-03-27 15:10:38.727000,606,7104,1,568,-774,520,-473,1272,291,1168,693,776,49,6416,142,6592,-3775,5704,-294,512,619,136,797,4360,1613,5184,558,6272,2,-1,?
2017-03-27 15:10:38.734000,612,7104,6,568,-768,520,-478,1272,280,1168,687,776,51,6416,136,6592,-3773,5704,-275,512,616,136,797,4360,1604,5184,564,6272,2,-1,?
2017-03-27 15:10:38.741000,623,7104,-1,568,-748,520,-477,1272,277,1168,683,776,49,6416,141,6592,-3761,5704,-269,512,635,136,781,4360,1619,5184,573,6272,2,-1,?
2017-03-27 15:10:38.750000,606,7104,-7,568,-752,520,-479,1272,292,1168,691,776,33,6416,112,6592,-3771,5704,-281,512,624,136,750,4360,1612,5184,566,6272,2,-1,?
2017-03-27 15:10:38.758000,589,7104,0,568,-762,520,-484,1272,288,1168,679,776,14,6416,63,6592,-3792,5704,-311,512,599,136,708,4360,1607,5184,549,6272,2,-1,?
2017-03-27 15:10:38.764000,597,7104,4,568,-755,520,-485,1272,279,1168,658,776,9,6416,65,6592,-3787,5704,-321,512,602,136,678,4360,1613,5184,547,6272,2,-1,?
2017-03-27 15:10:38.773000,617,7104,2,568,-750,520,-481,1272,290,1168,659,776,21,6416,103,6592,-3768,5704,-312,512,622,136,641,4360,1617,5184,569,6272,2,0,?
2017-03-27 15:10:38.780000,630,7104,4,568,-736,520,-476,1272,290,1168,664,776,45,6416,124,6592,-3756,5704,-314,512,631,136,595,4360,1631,5184,587,6272,2,0,?
2017-03-27 15:10:38.788000,628,7104,4,568,-730,520,-477,1272,275,1168,654,776,55,6416,117,6592,-3757,5704,-317,512,635,136,564,4360,1644,5184,584,6272,2,0,?
2017-03-27 15:10:38.797000,618,7104,2,568,-752,520,-483,1272,278,1168,651,776,41,6416,101,6592,-3763,5704,-331,512,626,136,515,4360,1629,5184,567,6272,2,-1,?
2017-03-27 15:10:38.805000,618,7104,4,568,-747,520,-487,1272,284,1168,652,776,25,6416,107,6592,-3744,5704,-350,512,611,136,463,4360,1609,5184,558,6272,2,-1,?
2017-03-27 15:10:38.813000,624,7104,5,568,-753,520,-485,1272,280,1168,650,776,27,6416,121,6592,-3716,5704,-320,512,619,136,457,4360,1617,5184,566,6272,2,-1,?
2017-03-27 15:10:38.819000,617,7104,5,568,-773,520,-482,1272,282,1168,648,776,35,6416,127,6592,-3696,5704,-259,512,644,136,457,4360,1647,5184,581,6272,2,-1,?
2017-03-27 15:10:38.828000,610,7104,6,568,-645,520,-481,1272,286,1168,633,776,32,6416,145,6592,-3666,5704,-224,512,655,136,405,4360,1655,5184,581,6272,2,-2,?
2017-03-27 15:10:38.837000,615,7104,5,568,-414,520,-483,1272,291,1168,624,776,24,6416,153,6592,-3651,5704,-216,512,640,136,306,4360,1617,5184,569,6272,2,-2,?
2017-03-27 15:10:38.844000,611,7104,3,568,-273,520,-485,1272,297,1168,641,776,31,6416,145,6592,-3662,5704,-208,512,640,136,200,4360,1596,5184,571,6272,2,-2,?
2017-03-27 15:10:38.851000,604,7104,3,568,-185,520,-486,1272,296,1168,657,776,48,6416,164,6592,-3657,5704,-195,512,652,136,126,4360,1629,5184,585,6272,2,-2,?
2017-03-27 15:10:38.860000,611,7104,-1,568,-82,520,-488,1272,288,1168,657,776,43,6416,176,6592,-3636,5704,-180,512,648,136,95,4360,1650,5184,586,6272,2,-2,?
2017-03-27 15:10:38.868000,617,7104,-1,568,-43,520,-486,1272,297,1168,661,776,34,6416,163,6592,-3629,5704,-145,512,641,136,90,4360,1631,5184,576,6272,2,-2,?
2017-03-27 15:10:38.876000,600,7104,6,568,-60,520,-496,1272,304,1168,666,776,44,6416,152,6592,-3641,5704,-132,512,629,136,86,4360,1618,5184,567,6272,2,-2,?
2017-03-27 15:10:38.883000,578,7104,2,568,-73,520,-519,1272,284,1168,659,776,41,6416,147,6592,-3656,5704,-177,512,614,136,49,4360,1623,5184,558,6272,2,-3,?
2017-03-27 15:10:38.892000,573,7104,-4,568,-81,520,-524,1272,273,1168,646,776,29,6416,149,6592,-3651,5704,-224,512,607,136,2,4360,1621,5184,555,6272,2,-3,?
2017-03-27 15:10:38.898000,587,7104,0,568,-67,520,-517,1272,277,1168,636,776,35,6416,157,6592,-3624,5704,-224,512,600,136,-9,4360,1618,5184,557,6272,2,-3,?
2017-03-27 15:10:38.907000,596,7104,-3,568,-54,520,-525,1272,270,1168,645,776,32,6416,138,6592,-3625,5704,-217,512,621,136,-17,4360,1627,5184,555,6272,2,-3,?
2017-03-27 15:10:38.914000,575,7104,-2,568,-81,520,-533,1272,273,1168,673,776,18,6416,114,6592,-3644,5704,-246,512,675,136,-44,4360,1629,5184,550,6272,2,-2,?
2017-03-27 15:10:38.921000,558,7104,7,568,-108,520,-530,1272,302,1168,692,776,41,6416,138,6592,-3630,5704,-258,512,691,136,-54,4360,1622,5184,538,6272,2,-2,?
2017-03-27 15:10:38.931000,558,7104,3,568,-99,520,-527,1272,308,1168,695,776,64,6416,158,6592,-3610,5704,-246,512,659,136,-71,4360,1620,5184,527,6272,2,-2,?
2017-03-27 15:10:38.937000,570,7104,-3,568,-75,520,-521,1272,291,1168,694,776,59,6416,141,6592,-3613,5704,-243,512,652,136,-96,4360,1626,5184,535,6272,2,-2,?
2017-03-27 15:10:38.946000,594,7104,-1,568,-83,520,-521,1272,297,1168,696,776,76,6416,148,6592,-3601,5704,-225,512,673,136,-94,4360,1643,5184,554,6272,2,-1,?
2017-03-27 15:10:38.952000,600,7104,-1,568,-98,520,-530,1272,308,1168,692,776,96,6416,176,6592,-3578,5704,-194,512,675,136,-86,4360,1658,5184,557,6272,2,-1,?
2017-03-27 15:10:38.960000,584,7104,-1,568,-91,520,-522,1272,303,1168,686,776,72,6416,170,6592,-3580,5704,-188,512,660,136,-90,4360,1652,5184,555,6272,2,-1,?
2017-03-27 15:10:38.968000,597,7104,1,568,-86,520,-498,1272,300,1168,684,776,57,6416,153,6592,-3583,5704,-175,512,662,136,-88,4360,1657,5184,577,6272,2,-1,?
2017-03-27 15:10:38.976000,625,7104,-2,568,-98,520,-492,1272,297,1168,669,776,70,6416,164,6592,-3581,5704,-141,512,684,136,-99,4360,1680,5184,605,6272,2,-1,?
2017-03-27 15:10:38.983000,612,7104,-2,568,-124,520,-505,1272,299,1168,661,776,64,6416,170,6592,-3591,5704,-132,512,689,136,-128,4360,1679,5184,611,6272,2,0,?
2017-03-27 15:10:38.993000,594,7104,1,568,-96,520,-507,1272,309,1168,680,776,50,6416,159,6592,-3596,5704,-131,512,682,136,-145,4360,1675,5184,610,6272,2,0,?
2017-03-27 15:10:39.001000,616,7104,-3,568,-74,520,-499,1272,310,1168,692,776,63,6416,167,6592,-3590,5704,-107,512,695,136,-146,4360,1700,5184,626,6272,2,0,?
2017-03-27 15:10:39.009000,636,7104,-2,568,-290,520,-498,1272,311,1168,687,776,92,6416,196,6592,-3581,5704,-80,512,710,136,-152,4360,1712,5184,642,6272,2,0,?
2017-03-27 15:10:39.018000,630,7104,2,568,-599,520,-504,1272,321,1168,686,776,103,6416,203,6592,-3572,5704,-80,512,702,136,-167,4360,1700,5184,644,6272,2,0,?
2017-03-27 15:10:39.023000,613,7104,-1,568,-672,520,-505,1272,331,1168,705,776,93,6416,201,6592,-3567,5704,-108,512,697,136,-188,4360,1702,5184,643,6272,1,-1,?
2017-03-27 15:10:39.031000,605,7104,-1,568,-601,520,-498,1272,341,1168,722,776,85,6416,208,6592,-3576,5704,-120,512,701,136,-191,4360,1714,5184,648,6272,1,-1,?
2017-03-27 15:10:39.040000,617,7104,7,568,-587,520,-492,1272,339,1168,710,776,91,6416,205,6592,-3574,5704,-95,512,703,136,-184,4360,1706,5184,662,6272,1,-2,?
2017-03-27 15:10:39.047000,633,7104,7,568,-569,520,-490,1272,328,1168,686,776,106,6416,212,6592,-3551,5704,-71,512,711,136,-202,4360,1697,5184,677,6272,1,-2,?
2017-03-27 15:10:39.056000,641,7104,2,568,-528,520,-488,1272,334,1168,694,776,107,6416,226,6592,-3551,5704,-74,512,721,136,-226,4360,1703,5184,677,6272,1,-2,?
2017-03-27 15:10:39.063000,645,7104,2,568,-516,520,-484,1272,348,1168,717,776,97,6416,215,6592,-3576,5704,-93,512,710,136,-225,4360,1708,5184,669,6272,1,-2,?
2017-03-27 15:10:39.070000,647,7104,1,568,-499,520,-483,1272,345,1168,717,776,104,6416,206,6592,-3569,5704,-73,512,697,136,-230,4360,1712,5184,666,6272,1,-2,?
2017-03-27 15:10:39.078000,645,7104,-1,568,-474,520,-490,1272,349,1168,720,776,130,6416,236,6592,-3523,5704,15,512,718,136,-243,4360,1718,5184,670,6272,1,-2,?
2017-03-27 15:10:39.086000,653,7112,1,568,-442,520,-499,1272,366,1168,737,776,146,6416,274,6592,-3504,5704,113,512,758,136,-217,4360,1728,5184,685,6272,1,-1,?
2017-03-27 15:10:39.095000,664,7112,-1,544,-438,520,-509,1272,372,1168,752,776,161,6416,297,6592,-3490,5704,187,512,788,136,-198,4360,1750,5184,708,6272,1,-2,?
2017-03-27 15:10:39.101000,654,7112,-9,544,-461,520,-516,1272,372,1168,770,776,184,6416,318,6592,-3438,5704,282,512,805,136,-207,4360,1756,5184,712,6096,1,-2,?
2017-03-27 15:10:39.111000,655,7112,-7,544,-448,432,-528,1272,377,1168,782,776,185,6416,316,6592,-3432,5704,375,512,831,136,-172,4360,1759,5184,714,6096,0,-3,?
2017-03-27 15:10:39.118000,682,7112,-4,544,-462,432,-549,1256,369,1168,765,776,175,6416,291,6592,-3483,5704,408,512,862,136,-169,4360,1789,5184,727,6096,0,-4,?
2017-03-27 15:10:39.125000,675,7112,-9,544,-521,432,-559,1256,345,1136,730,776,170,6416,295,6592,-3469,5704,451,512,849,136,-239,4360,1787,5184,718,6096,-1,-4,?
2017-03-27 15:10:39.132000,652,7112,-5,544,-527,432,-555,1256,333,1136,708,640,167,6416,339,6592,-3395,5704,532,512,842,136,-220,4360,1778,5184,705,6096,-1,-4,?
2017-03-27 15:10:39.140000,687,7112,1,544,-528,432,-566,1256,332,1136,708,640,183,6400,345,6592,-3332,5704,583,512,885,136,-183,4360,1821,5184,716,6096,-1,-4,?
2017-03-27 15:10:39.148000,730,7112,-5,544,-577,432,-587,1256,326,1136,717,640,203,6400,315,6600,-3180,5704,619,512,916,136,-245,4360,1844,5184,728,6096,-2,-4,?
2017-03-27 15:10:39.155000,698,7112,-7,544,-578,432,-592,1256,331,1136,720,640,206,6400,338,6600,-2864,5568,725,512,887,136,-155,4360,1811,5184,710,6096,-2,-4,?
2017-03-27 15:10:39.165000,641,7112,1,544,-552,432,-582,1256,346,1136,721,640,205,6400,379,6600,-2597,5568,853,520,848,136,43,4360,1802,5184,671,6096,-2,-3,?
2017-03-27 15:10:39.173000,668,7112,-2,544,-581,432,-586,1256,343,1136,728,640,206,6400,359,6600,-2674,5568,821,520,879,8032,59,4360,1849,5184,679,6096,-3,-3,?
2017-03-27 15:10:39.182000,722,7112,-9,544,-590,432,-597,1256,345,1136,749,640,213,6400,349,6600,-2940,5568,757,520,925,8032,113,4200,1862,5184,723,6096,-3,-2,?
2017-03-27 15:10:39.189000,701,7112,-5,544,-551,432,-581,1256,370,1136,774,640,230,6400,380,6600,-3032,5568,859,520,903,8032,402,4200,1815,5008,717,6096,-3,-2,?
2017-03-27 15:10:39.195000,657,7112,1,544,-533,432,-569,1256,376,1136,765,640,228,6400,373,6600,-3004,5568,951,520,870,8032,713,4200,1785,5008,692,6096,-3,-2,?
2017-03-27 15:10:39.205000,671,7112,-2,544,-555,432,-603,1256,357,1136,746,640,214,6400,346,6600,-3072,5568,870,520,887,8048,896,4200,1801,5008,714,6096,-3,-1,?
2017-03-27 15:10:39.212000,727,7112,-10,544,-574,432,-623,1256,364,1136,766,640,239,6400,358,6600,-3140,5568,767,520,900,8048,1000,4200,1808,5008,733,6096,-3,-1,?
2017-03-27 15:10:39.220000,739,7112,-6,544,-564,432,-596,1256,383,1136,787,640,271,6400,379,6600,-3073,5568,799,520,892,8048,1071,4200,1801,5008,718,6096,-2,-1,?
2017-03-27 15:10:39.228000,695,7112,0,544,-538,432,-583,1256,370,1136,760,640,262,6400,386,6600,-3000,5568,855,520,869,8048,1177,4200,1789,5008,709,6096,-2,0,?
2017-03-27 15:10:39.236000,692,7112,-11,544,-544,432,-618,1256,346,1136,738,640,239,6400,375,6600,-3013,5568,817,520,846,8048,1313,4200,1760,5008,715,6096,-2,0,?
2017-03-27 15:10:39.243000,741,7112,-8,544,-566,432,-650,1256,351,1136,753,640,235,6400,352,6600,-3014,5568,719,520,869,8048,1361,4200,1770,5008,722,6096,-2,0,?
2017-03-27 15:10:39.250000,717,7112,1,544,-564,432,-636,1256,360,1136,754,640,249,6400,358,6600,-2961,5568,723,520,862,8048,1353,4200,1786,5008,700,6096,-1,0,?
2017-03-27 15:10:39.260000,653,7112,-10,544,-561,432,-605,1256,341,1136,714,640,246,6400,377,6600,-2923,5568,847,520,794,8048,1394,4200,1739,5008,659,6096,-1,0,?
2017-03-27 15:10:39.266000,650,7112,-9,544,-571,432,-601,1256,312,1136,683,640,205,6400,352,6600,-2913,5568,872,520,764,8048,1381,4200,1705,5008,645,6096,-2,0,?
2017-03-27 15:10:39.274000,654,7112,1,544,-584,432,-622,1256,305,1136,695,640,179,6400,318,6600,-2911,5568,834,520,759,8048,1252,4200,1729,5008,635,6096,-2,0,?
2017-03-27 15:10:39.281000,607,7112,-4,544,-598,432,-599,1256,325,1136,717,640,188,6400,327,6600,-2925,5568,931,520,705,8048,1224,4200,1716,5008,586,6096,-2,0,?
2017-03-27 15:10:39.290000,587,7112,-1,544,-590,432,-519,1256,347,1136,716,640,191,6400,358,6600,-2895,5568,1133,520,688,8048,1330,4200,1660,5008,579,6096,-2,-1,?
2017-03-27 15:10:39.298000,669,7112,10,544,-556,432,-480,1256,341,1136,702,640,201,6400,379,6600,-2858,5568,1161,520,770,8048,1287,4200,1702,5008,662,6096,-2,-1,?
2017-03-27 15:10:39.305000,724,7112,-3,544,-571,432,-512,1256,308,1136,685,640,198,6400,340,6600,-2918,5568,1056,520,789,8048,1187,4200,1744,5008,673,6096,-2,-1,?
2017-03-27 15:10:39.312000,661,7112,-4,544,-585,432,-484,1256,312,1136,685,640,174,6400,288,6600,-2958,5568,1128,520,714,8048,1238,4200,1688,5008,605,6096,-3,-1,?
2017-03-27 15:10:39.321000,627,7112,12,544,-538,432,-396,1256,342,1136,703,640,190,6400,313,6600,-2894,5568,1248,520,687,8048,1285,4200,1648,5008,611,6096,-3,-1,?
2017-03-27 15:10:39.327000,643,7112,5,544,-569,432,-418,1256,292,1136,664,640,185,6400,309,6600,-2920,5568,1149,520,698,8048,1237,4200,1660,5008,617,6096,-3,-1,?
2017-03-27 15:10:39.335000,602,7112,0,544,-625,432,-476,1256,230,1136,615,640,118,6400,232,6600,-3005,5568,1020,520,672,8048,1233,4200,1653,5008,551,6096,-3,-1,?
2017-03-27 15:10:39.343000,581,7112,13,544,-571,432,-407,1256,271,1136,658,640,120,6400,236,6600,-2935,5568,1117,520,671,8048,1317,4200,1651,5008,565,6096,-3,-1,?
2017-03-27 15:10:39.352000,596,7112,7,544,-551,432,-337,1256,301,1136,693,640,169,6400,298,6600,-2857,5568,1229,520,675,8048,1401,4200,1651,5008,607,6096,-3,-1,?
2017-03-27 15:10:39.360000,533,7112,-7,544,-615,432,-376,1256,229,1136,622,640,108,6400,270,6600,-2925,5568,1136,520,601,8048,1436,4200,1605,5008,523,6096,-3,-2,?
2017-03-27 15:10:39.366000,496,7112,-1,544,-622,432,-418,1256,173,1136,555,640,39,6400,197,6600,-2985,5568,972,520,570,8048,1328,4200,1610,5008,479,6096,-3,-2,?
2017-03-27 15:10:39.375000,511,7112,11,544,-605,432,-398,1256,189,1136,572,640,63,6400,179,6600,-2981,5568,917,520,583,8048,1176,4200,1645,5008,522,6096,-3,-3,?
2017-03-27 15:10:39.384000,471,7112,1,544,-653,432,-376,1256,197,1136,574,640,61,6400,183,6600,-2994,5568,973,520,519,8048,1237,4200,1599,5008,479,6096,-3,-3,?
2017-03-27 15:10:39.392000,440,7112,-9,544,-703,432,-385,1256,159,1136,517,640,1,6400,164,6600,-2992,5568,943,520,472,8048,1390,4200,1546,5008,411,6096,-3,-3,?
2017-03-27 15:10:39.398000,441,7112,0,544,-705,432,-405,1256,115,1136,469,640,-35,6400,133,6600,-2972,5568,875,520,467,8048,1308,4200,1536,5008,413,6096,-3,-3,?
2017-03-27 15:10:39.407000,410,7112,2,544,-669,432,-411,1256,99,1136,460,640,-37,6400,123,6600,-2975,5568,942,520,409,8048,1214,4200,1520,5008,394,6096,-3,-3,?
2017-03-27 15:10:39.415000,409,7112,-4,544,-655,432,-415,1256,107,1136,482,640,-32,6400,127,6600,-2986,5568,982,520,378,8048,1336,4200,1526,5008,362,6096,-3,-3,?
2017-03-27 15:10:39.422000,439,7112,0,544,-691,432,-435,1256,101,1136,494,640,-36,6400,112,6600,-2992,5568,911,520,420,8048,1417,4200,1555,5008,380,6096,-2,-3,?
2017-03-27 15:10:39.430000,427,7112,6,544,-668,432,-444,1256,85,1136,473,640,-45,6400,103,6600,-2996,5568,835,520,426,8048,1356,4200,1547,5008,383,6096,-2,-3,?
2017-03-27 15:10:39.437000,382,7112,2,544,-618,432,-444,1256,87,1136,453,640,-34,6400,119,6600,-3009,5568,844,520,383,8048,1365,4200,1527,5008,353,6096,-2,-2,?
2017-03-27 15:10:39.446000,407,7112,1,544,-652,432,-470,1256,91,1136,465,640,-5,6400,130,6600,-3011,5568,864,520,396,8048,1392,4200,1555,5008,370,6096,-2,-2,?
2017-03-27 15:10:39.453000,502,7112,0,544,-665,432,-499,1256,95,1136,486,640,19,6400,135,6600,-2986,5568,774,520,434,8048,1308,4200,1587,5008,414,6096,-2,-2,?
2017-03-27 15:10:39.460000,533,7112,1,544,-605,432,-515,1256,102,1136,487,640,29,6400,131,6600,-2995,5568,701,520,432,8048,1296,4200,1584,5008,425,6096,-1,-1,?
2017-03-27 15:10:39.469000,467,7112,10,544,-590,432,-518,1256,126,1136,504,640,29,6400,153,6600,-2980,5568,809,520,412,8048,1417,4200,1561,5008,410,6096,-1,-1,?
2017-03-27 15:10:39.477000,450,7112,5,544,-617,432,-520,1256,152,1136,530,640,33,6400,204,6600,-2913,5568,900,520,413,8048,1410,4200,1551,5008,412,6096,-1,-1,?
2017-03-27 15:10:39.484000,522,7112,3,544,-588,432,-531,1256,162,1136,534,640,41,6400,193,6600,-2914,5568,857,520,436,8048,1334,4200,1582,5008,451,6096,-1,-1,?
2017-03-27 15:10:39.494000,552,7112,12,544,-578,432,-549,1256,178,1136,553,640,47,6400,151,6600,-2958,5568,818,520,462,8048,1426,4200,1612,5008,479,6096,-1,-1,?
2017-03-27 15:10:39.500000,529,7112,14,544,-598,432,-567,1256,204,1136,589,640,54,6400,185,6600,-2934,5568,778,520,494,8048,1432,4200,1618,5008,480,6096,-1,-1,?
2017-03-27 15:10:39.508000,530,7112,8,544,-549,432,-577,1256,212,1136,598,640,65,6400,240,6600,-2879,5568,815,520,483,8048,1315,4200,1606,5008,480,6096,-1,-1,?
2017-03-27 15:10:39.517000,570,7112,4,544,-525,432,-580,1256,214,1136,582,640,72,6400,220,6600,-2880,5568,890,520,477,8048,1478,4200,1613,5008,494,6096,-1,-1,?
2017-03-27 15:10:39.524000,597,7112,11,544,-553,432,-588,1256,232,1136,586,640,78,6400,196,6600,-2900,5568,844,520,506,8048,1534,4200,1643,5008,511,6096,-1,-1,?
2017-03-27 15:10:39.531000,581,7112,11,544,-522,432,-605,1256,252,1136,611,640,84,6400,227,6600,-2884,5568,824,520,507,8048,1227,4200,1643,5008,516,6096,0,-1,?
2017-03-27 15:10:39.539000,575,7112,-2,544,-489,432,-617,1256,272,1136,640,640,102,6400,265,6600,-2845,5568,871,520,493,8048,1227,4200,1613,5008,514,6096,-1,-1,?
2017-03-27 15:10:39.547000,601,7112,0,544,-488,432,-622,1256,302,1136,663,640,136,6400,279,6600,-2826,5568,905,520,510,8048,1546,4200,1607,5008,530,6096,0,-1,?
2017-03-27 15:10:39.554000,624,7112,12,544,-453,432,-635,1256,304,1136,662,640,147,6400,269,6600,-2839,5568,953,520,541,8048,1464,4200,1646,5008,554,6096,0,-1,?
2017-03-27 15:10:39.563000,613,7112,6,544,-423,432,-641,1256,292,1136,658,640,128,6400,272,6600,-2820,5568,937,520,533,8048,1211,4200,1649,5008,545,6096,-1,-1,?
2017-03-27 15:10:39.570000,606,7112,-2,544,-428,432,-639,1256,301,1136,664,640,121,6400,296,6600,-2794,5568,837,520,532,8048,1325,4200,1625,5008,544,6096,-1,-1,?
2017-03-27 15:10:39.579000,626,7112,3,544,-409,432,-638,1256,312,1136,663,640,149,6400,301,6600,-2808,5568,855,520,566,8048,1473,4200,1647,5008,583,6096,-1,-2,?
2017-03-27 15:10:39.586000,641,7072,-1,544,-400,432,-642,1256,320,1136,668,640,168,6400,308,6600,-2809,5568,955,520,574,8048,1362,4200,1670,5008,601,6096,-1,-2,?
2017-03-27 15:10:39.593000,641,7072,-6,456,-447,432,-645,1256,334,1136,685,640,164,6400,334,6600,-2786,5568,931,520,560,8048,1264,4200,1662,5008,589,6096,-1,-2,?
2017-03-27 15:10:39.602000,643,7072,0,456,-438,432,-639,1256,337,1136,693,640,168,6400,346,6600,-2764,5568,872,520,579,8048,1322,4200,1652,5008,599,6120,-1,-2,?
2017-03-27 15:10:39.612000,652,7072,1,456,-329,192,-635,1256,337,1136,688,640,178,6400,337,6600,-2770,5568,901,520,609,8048,1359,4200,1663,5008,628,6120,-1,-2,?
2017-03-27 15:10:39.618000,645,7072,-3,456,-366,192,-641,1256,351,1136,693,640,173,6400,333,6600,-2813,5568,936,520,588,8048,1326,4200,1672,5008,618,6120,-1,-2,?
2017-03-27 15:10:39.626000,634,7072,-9,456,-392,192,-645,1256,357,1096,705,640,171,6400,341,6600,-2826,5568,888,520,574,8048,1302,4200,1661,5008,592,6120,-1,-2,?
2017-03-27 15:10:39.633000,646,7072,-9,456,148,192,-636,1256,348,1096,705,584,181,6400,355,6600,-2778,5568,855,520,595,8048,1276,4200,1649,5008,607,6120,-2,-2,?
2017-03-27 15:10:39.642000,654,7072,-4,456,772,192,-630,1256,345,1096,711,584,181,6424,356,6600,-2763,5568,853,520,587,8048,1294,4200,1654,5008,619,6120,-2,-2,?
2017-03-27 15:10:39.651000,642,7072,-7,456,481,192,-631,1256,347,1096,710,584,175,6424,335,6544,-2813,5568,809,520,555,8048,1315,4200,1665,5008,593,6120,-2,-2,?
2017-03-27 15:10:39.657000,640,7072,-9,456,-262,192,-635,1256,347,1096,697,584,177,6424,331,6544,-2810,5384,839,520,554,8048,1245,4200,1655,5008,591,6120,-2,-2,?
2017-03-27 15:10:39.665000,652,7072,-5,456,-495,192,-638,1256,343,1096,703,584,177,6424,356,6544,-2774,5384,922,536,589,8048,1175,4200,1670,5008,621,6120,-2,-1,?
2017-03-27 15:10:39.671000,645,7072,-5,456,-460,192,-635,1256,341,1096,717,584,176,6424,373,6544,-2782,5384,937,536,591,8072,1259,4200,1677,5008,615,6120,-2,-1,?
2017-03-27 15:10:39.679000,639,7072,-6,456,-509,192,-641,1256,346,1096,716,584,171,6424,357,6544,-2800,5384,929,536,572,8072,1308,4352,1672,5008,596,6120,-1,-1,?
2017-03-27 15:10:39.687000,645,7072,-5,456,-538,192,-647,1256,360,1096,718,584,176,6424,351,6544,-2817,5384,934,536,586,8072,1169,4352,1708,4880,597,6120,-2,-1,?
2017-03-27 15:10:39.695000,628,7072,-11,456,-603,192,-626,1256,370,1096,724,584,199,6424,403,6544,-2782,5384,985,512,584,8072,1153,4352,1703,4880,586,6120,-1,-1,?
2017-03-27 15:10:39.704000,626,7072,-11,456,-400,192,-615,1256,362,1096,710,584,203,6424,435,6544,-2735,5384,1029,512,578,8080,1250,4352,1684,4880,587,6120,-1,-1,?
2017-03-27 15:10:39.713000,639,7072,-10,456,230,192,-637,1256,362,1096,714,584,186,6424,403,6544,-2757,5384,1031,512,586,8080,1231,4368,1696,4880,596,6120,-1,0,?
2017-03-27 15:10:39.719000,624,7072,-13,456,650,192,-653,1256,368,1096,739,584,177,6424,378,6544,-2788,5384,1006,512,573,8080,1185,4368,1679,4880,576,6120,-1,0,?
2017-03-27 15:10:39.727000,617,7072,-10,456,603,192,-651,1256,356,1096,718,584,178,6424,389,6544,-2777,5384,955,512,556,8080,1194,4368,1657,4880,559,6120,-1,0,?
2017-03-27 15:10:39.734000,626,7072,-8,456,555,192,-647,1256,347,1096,684,584,179,6424,400,6544,-2747,5384,926,512,560,8080,1209,4368,1671,4880,570,6120,-1,0,?
2017-03-27 15:10:39.742000,625,7072,-11,456,595,192,-649,1256,351,1096,698,584,179,6424,398,6544,-2758,5384,928,512,563,8080,1198,4368,1678,4880,571,6120,-1,0,?
2017-03-27 15:10:39.750000,626,7072,-11,456,541,192,-659,1256,350,1096,724,584,172,6424,391,6544,-2800,5384,865,512,566,8080,1125,4368,1674,4880,562,6120,-1,0,?
2017-03-27 15:10:39.758000,632,7072,-8,456,492,192,-672,1256,353,1096,717,584,159,6424,398,6544,-2802,5384,791,512,573,8080,1083,4368,1677,4880,568,6120,0,0,?
2017-03-27 15:10:39.766000,616,7072,-10,456,461,192,-667,1256,364,1096,717,584,163,6424,424,6544,-2752,5384,819,512,547,8080,1129,4368,1649,4880,561,6120,0,0,?
2017-03-27 15:10:39.774000,606,7072,-14,456,418,192,-658,1256,363,1096,733,584,176,6424,439,6544,-2726,5384,855,512,527,8080,1099,4368,1643,4880,555,6120,0,0,?
2017-03-27 15:10:39.781000,625,7072,-13,456,412,192,-666,1256,352,1096,732,584,180,6424,434,6544,-2741,5384,855,512,555,8080,1042,4368,1674,4880,578,6120,0,0,?
2017-03-27 15:10:39.789000,636,7072,-9,456,393,192,-678,1256,344,1096,720,584,179,6424,417,6544,-2747,5384,833,512,585,8080,1087,4368,1679,4880,590,6120,0,0,?
2017-03-27 15:10:39.798000,623,7072,-9,456,350,192,-678,1256,343,1096,717,584,194,6424,407,6544,-2771,5384,755,512,579,8080,1079,4368,1666,4880,574,6120,0,-1,?
2017-03-27 15:10:39.804000,605,7072,-14,456,325,192,-670,1256,352,1096,728,584,216,6424,418,6544,-2798,5384,719,512,559,8080,1026,4368,1660,4880,562,6120,1,-1,?
2017-03-27 15:10:39.812000,596,7072,-17,456,314,192,-667,1256,354,1096,737,584,202,6424,419,6544,-2795,5384,734,512,547,8080,1014,4368,1660,4880,555,6120,1,-1,?
2017-03-27 15:10:39.821000,590,7072,-10,456,297,192,-666,1256,345,1096,730,584,165,6424,396,6544,-2804,5384,699,512,541,8080,978,4368,1661,4880,547,6120,1,-1,?
2017-03-27 15:10:39.828000,597,7072,-2,456,271,192,-657,1256,345,1096,719,584,162,6424,399,6544,-2804,5384,699,512,541,8080,982,4368,1665,4880,558,6120,1,-1,?
2017-03-27 15:10:39.836000,630,7072,-4,456,255,192,-645,1256,352,1096,720,584,177,6424,414,6544,-2803,5384,717,512,562,8080,976,4368,1681,4880,581,6120,1,-1,?
2017-03-27 15:10:39.844000,634,7072,-12,456,249,192,-645,1256,345,1096,719,584,170,6424,395,6544,-2849,5384,631,512,587,8080,868,4368,1685,4880,583,6120,1,-1,?
2017-03-27 15:10:39.852000,604,7072,-8,456,239,192,-645,1256,342,1096,713,584,156,6424,393,6544,-2847,5384,620,512,579,8080,800,4368,1664,4880,580,6120,1,-2,?
2017-03-27 15:10:39.860000,609,7072,-2,456,226,192,-632,1256,359,1096,714,584,159,6424,407,6544,-2746,5384,688,512,572,8080,864,4368,1669,4880,592,6120,1,-2,?
2017-03-27 15:10:39.867000,631,7072,-8,456,221,192,-621,1256,365,1096,703,584,166,6424,413,6544,-2657,5384,575,512,599,8080,881,4368,1710,4880,605,6120,1,-2,?
2017-03-27 15:10:39.877000,631,7072,-2,456,203,192,-620,1256,352,1096,685,584,174,6424,466,6544,-2568,5384,460,512,610,8080,772,4368,1718,4880,606,6120,1,-2,?
2017-03-27 15:10:39.884000,637,7072,-1,456,177,192,-628,1256,348,1096,691,584,195,6424,459,6544,-2404,5384,515,512,608,8080,700,4368,1715,4880,607,6120,1,-2,?
2017-03-27 15:10:39.891000,658,7072,-10,456,162,192,-636,1256,352,1096,707,584,211,6424,538,6544,-2257,5384,505,512,620,8080,702,4368,1745,4880,616,6120,2,-2,?
2017-03-27 15:10:39.898000,650,7072,-9,456,120,192,-628,1256,349,1096,700,584,207,6424,1041,6544,-2166,5384,461,512,598,8080,728,4368,1744,4880,602,6120,2,-2,?
2017-03-27 15:10:39.907000,634,7072,-5,456,44,192,-616,1256,352,1096,699,584,199,6424,1576,6544,-2107,5384,484,512,580,8080,720,4368,1732,4880,580,6120,2,-2,?
2017-03-27 15:10:39.916000,653,7072,-1,456,-18,192,-627,1256,354,1096,722,584,197,6424,1778,6544,-2104,5384,476,512,604,8080,667,4368,1768,4880,592,6120,2,-2,?
2017-03-27 15:10:39.923000,674,7072,-4,456,-62,192,-635,1256,349,1096,720,584,195,6424,2038,6544,-2113,5384,495,512,601,8080,665,4368,1776,4880,603,6120,2,-2,?
2017-03-27 15:10:39.931000,678,7072,-8,456,-100,192,-621,1256,346,1096,692,584,197,6424,2398,6544,-2120,5384,537,512,584,8080,714,4368,1745,4880,593,6120,2,-2,?
2017-03-27 15:10:39.937000,684,7072,-1,456,-119,192,-620,1256,338,1096,685,584,215,6424,2137,6544,-2191,5384,495,512,616,8080,699,4368,1766,4880,603,6120,2,-2,?
2017-03-27 15:10:39.947000,672,7072,-1,456,-149,192,-637,1256,333,1096,709,584,232,6424,1215,6544,-2297,5384,467,512,632,8080,656,4368,1789,4880,616,6120,2,-1,?
2017-03-27 15:10:39.955000,641,7072,-9,456,-195,192,-645,1256,343,1096,724,584,244,6424,707,6544,-2340,5384,517,512,595,8080,681,4368,1748,4880,595,6120,2,-1,?
2017-03-27 15:10:39.962000,640,7072,-3,456,-187,192,-642,1256,345,1096,720,584,246,6424,1198,6544,-2338,5384,520,512,587,8080,692,4368,1737,4880,598,6120,2,-1,?
2017-03-27 15:10:39.971000,668,7072,-2,456,-155,192,-636,1256,336,1096,721,584,227,6424,1998,6544,-2358,5384,483,512,618,8080,623,4368,1785,4880,627,6120,2,-1,?
2017-03-27 15:10:39.978000,676,7072,-14,456,-176,192,-628,1256,339,1096,722,584,211,6424,2360,6544,-2359,5384,500,512,619,8080,607,4368,1781,4880,616,6120,2,-1,?
2017-03-27 15:10:39.985000,681,7072,-6,456,-212,192,-630,1256,339,1096,705,584,208,6424,2389,6544,-2331,5384,520,512,598,8080,660,4368,1750,4880,597,6120,2,0,?
2017-03-27 15:10:39.993000,696,7072,0,456,-204,192,-637,1256,323,1096,689,584,202,6424,2364,6544,-2327,5384,507,512,613,8080,660,4368,1767,4880,616,6120,2,0,?
2017-03-27 15:10:40.001000,700,7072,-10,456,-183,192,-629,1256,323,1096,692,584,186,6424,2368,6544,-2353,5384,481,512,642,8080,626,4368,1781,4880,639,6120,2,0,?
2017-03-27 15:10:40.010000,694,7072,-9,456,-189,192,-619,1256,341,1096,695,584,188,6424,2465,6544,-2361,5384,435,512,627,8080,627,4368,1764,4880,634,6120,2,0,?
2017-03-27 15:10:40.017000,692,7072,-8,456,-202,192,-629,1256,341,1096,693,584,200,6424,2555,6544,-2367,5384,401,512,616,8080,644,4368,1761,4880,627,6120,1,1,?
2017-03-27 15:10:40.023000,695,7072,-10,456,-207,192,-640,1256,333,1096,693,584,191,6424,2553,6544,-2402,5384,422,512,623,8080,652,4368,1761,4880,635,6120,1,1,?
2017-03-27 15:10:40.032000,688,7072,-11,456,-207,192,-635,1256,335,1096,686,584,179,6424,2555,6544,-2434,5384,453,512,626,8080,651,4368,1746,4880,638,6120,1,1,?
2017-03-27 15:10:40.040000,692,7072,-8,456,-197,192,-638,1256,327,1096,685,584,180,6424,2604,6544,-2453,5384,434,512,635,8080,625,4368,1754,4880,635,6120,1,1,?
2017-03-27 15:10:40.048000,704,7072,-2,456,-193,192,-647,1256,318,1096,695,584,192,6424,2642,6544,-2472,5384,405,512,628,8080,604,4368,1772,4880,638,6120,1,0,?
2017-03-27 15:10:40.056000,705,7072,-7,456,-200,192,-643,1256,324,1096,697,584,196,6424,2638,6544,-2494,5384,391,512,622,8080,629,4368,1771,4880,642,6120,1,0,?
2017-03-27 15:10:40.063000,707,7072,-9,456,-191,192,-637,1256,335,1096,695,584,190,6424,2618,6544,-2507,5384,403,512,644,8080,654,4368,1775,4880,648,6120,0,0,?
2017-03-27 15:10:40.071000,734,7072,-3,456,-170,192,-639,1256,340,1096,711,584,186,6424,2639,6544,-2507,5384,426,512,655,8080,668,4368,1777,4880,659,6120,0,-1,?
2017-03-27 15:10:40.080000,751,7072,-5,456,-172,192,-639,1256,334,1096,720,584,191,6424,2669,6544,-2536,5384,385,512,649,8080,666,4368,1778,4880,665,6120,0,-1,?
2017-03-27 15:10:40.087000,737,7072,-13,456,-186,192,-628,1256,331,1096,701,584,193,6424,2652,6544,-2589,5384,348,512,653,8080,646,4368,1773,4880,660,6120,0,-1,?
2017-03-27 15:10:40.094000,732,7016,-1,456,-187,192,-614,1256,331,1096,673,584,183,6424,2636,6544,-2629,5384,366,512,649,8080,609,4368,1754,4880,655,6120,0,-2,?
2017-03-27 15:10:40.102000,740,7016,3,448,-194,192,-616,1256,322,1096,664,584,167,6424,2635,6544,-2658,5384,364,512,628,8080,564,4368,1740,4880,648,6120,0,-2,?
2017-03-27 15:10:40.109000,732,7016,-8,448,-219,192,-633,1256,312,1096,670,584,150,6424,2610,6544,-2696,5384,336,512,618,8080,541,4368,1742,4880,645,6128,0,-2,?
2017-03-27 15:10:40.117000,714,7016,-4,448,-260,136,-639,1256,312,1096,665,584,147,6424,2584,6544,-2729,5384,320,512,610,8080,521,4368,1742,4880,640,6128,-1,-2,?
2017-03-27 15:10:40.127000,698,7016,-3,448,-305,136,-637,1256,313,1096,665,584,152,6424,2576,6544,-2742,5384,311,512,593,8080,485,4368,1722,4880,624,6128,-1,-2,?
2017-03-27 15:10:40.134000,691,7016,-6,448,-322,136,-637,1256,312,1088,676,584,145,6424,2568,6544,-2755,5384,287,512,591,8080,464,4368,1719,4880,626,6128,-1,-2,?
2017-03-27 15:10:40.142000,699,7016,-3,448,-327,136,-628,1256,319,1088,681,584,146,6424,2567,6544,-2771,5384,249,512,600,8080,471,4368,1735,4880,639,6128,-1,-3,?
2017-03-27 15:10:40.148000,702,7016,-3,448,-351,136,-629,1256,318,1088,678,584,159,6416,2560,6544,-2781,5384,209,512,593,8080,466,4368,1730,4880,624,6128,-1,-3,?
2017-03-27 15:10:40.157000,686,7016,-4,448,-371,136,-638,1256,316,1088,684,584,145,6416,2543,2112,-2794,5384,188,512,573,8080,413,4368,1724,4880,603,6128,-1,-2,?
2017-03-27 15:10:40.165000,685,7016,-3,448,-359,136,-631,1256,324,1088,690,584,126,6416,2534,2112,-2801,5392,175,512,575,8080,364,4368,1734,4880,615,6128,-1,-2,?
2017-03-27 15:10:40.173000,693,7016,-5,448,-350,136,-619,1256,324,1088,681,584,129,6416,2520,2112,-2798,5392,135,744,591,8080,352,4368,1744,4880,630,6128,-1,-2,?
2017-03-27 15:10:40.180000,688,7016,-10,448,-367,136,-618,1256,317,1088,681,584,136,6416,2506,2112,-2802,5392,82,744,579,8008,334,4368,1742,4880,618,6128,0,-2,?
2017-03-27 15:10:40.188000,690,7016,-7,448,-368,136,-617,1256,317,1088,686,584,135,6416,2510,2112,-2807,5392,53,744,565,8008,297,4848,1741,4880,610,6128,0,-2,?
2017-03-27 15:10:40.195000,692,7016,-2,448,-367,136,-609,1256,323,1088,689,584,131,6416,2518,2112,-2802,5392,43,744,567,8008,280,4848,1742,4872,614,6128,0,-2,?
2017-03-27 15:10:40.203000,676,7016,4,448,-387,136,-601,1256,320,1088,690,584,130,6416,2510,2112,-2804,5392,17,752,557,8008,275,4848,1735,4872,605,6128,0,-1,?
2017-03-27 15:10:40.211000,668,7016,-1,448,-406,136,-609,1256,314,1088,682,584,135,6416,2507,2112,-2807,5392,-13,752,541,8016,243,4848,1721,4872,592,6128,0,-1,?
2017-03-27 15:10:40.219000,671,7016,-10,448,-404,136,-620,1256,312,1088,665,584,135,6416,2506,2112,-2798,5392,-5,752,550,8016,212,4848,1716,4872,600,6128,0,-1,?
2017-03-27 15:10:40.227000,673,7016,0,448,-407,136,-613,1256,311,1088,655,584,125,6416,2489,2112,-2790,5392,-1,752,562,8016,216,4848,1734,4872,617,6128,1,0,?
2017-03-27 15:10:40.235000,684,7016,-3,448,-422,136,-609,1256,305,1088,663,584,129,6416,2479,2112,-2784,5392,-23,752,566,8016,215,4848,1750,4872,621,6128,1,0,?
2017-03-27 15:10:40.245000,683,7016,-10,448,-429,136,-627,1256,291,1088,661,584,132,6416,2481,2112,-2775,5392,-29,752,568,8016,179,4848,1744,4872,618,6128,1,0,?
2017-03-27 15:10:40.253000,661,7016,-5,448,-433,136,-630,1256,293,1088,652,584,119,6416,2477,2112,-2769,5392,-9,752,562,8016,152,4848,1733,4872,620,6128,1,0,?
2017-03-27 15:10:40.262000,664,7016,-5,448,-431,136,-614,1256,306,1088,649,584,126,6416,2472,2112,-2757,5392,8,752,562,8016,150,4848,1742,4872,623,6128,1,0,?
2017-03-27 15:10:40.267000,681,7016,-2,448,-419,136,-614,1256,308,1088,658,584,157,6416,2476,2112,-2740,5392,7,752,582,8016,137,4848,1763,4872,621,6128,1,0,?
2017-03-27 15:10:40.275000,677,7016,-3,448,-413,136,-621,1256,308,1088,678,584,181,6416,2478,2112,-2731,5392,-3,752,588,8016,108,4848,1771,4872,614,6128,1,1,?
2017-03-27 15:10:40.281000,669,7016,-4,448,-417,136,-623,1256,309,1088,677,584,188,6416,2474,2112,-2723,5392,-14,752,575,8016,63,4848,1769,4872,611,6128,1,1,?
2017-03-27 15:10:40.293000,676,7016,-3,448,-407,136,-620,1256,298,1088,656,584,191,6416,2476,2112,-2708,5392,-15,752,580,8016,21,4848,1778,4872,614,6128,1,1,?
2017-03-27 15:10:40.297000,680,7016,-5,448,-431,136,-615,1256,289,1088,648,584,193,6416,2480,2112,-2694,5392,-12,752,586,8016,-29,4848,1789,4872,605,6128,2,0,?
2017-03-27 15:10:40.305000,675,7016,-4,448,-420,136,-623,1256,293,1088,653,584,188,6416,2481,2112,-2681,5392,-14,752,572,8016,-93,4848,1783,4872,580,6128,1,0,?
2017-03-27 15:10:40.314000,672,7016,0,448,-204,136,-637,1256,298,1088,660,584,170,6416,2479,2112,-2673,5392,-27,752,569,8016,-136,4848,1773,4872,569,6128,1,0,?
2017-03-27 15:10:40.321000,678,7016,-4,448,71,136,-635,1256,293,1088,655,584,141,6416,2477,2112,-2674,5392,-39,752,577,8016,-161,4848,1771,4872,574,6128,1,0,?
2017-03-27 15:10:40.329000,676,7016,-10,448,123,136,-629,1256,268,1088,642,584,117,6416,2478,2112,-2661,5392,-42,752,573,8016,-195,4848,1767,4872,564,6128,1,0,?
2017-03-27 15:10:40.336000,666,7016,0,448,2,136,-637,1256,248,1088,648,584,114,6416,2475,2112,-2634,5392,-57,752,561,8016,-222,4848,1763,4872,549,6128,1,-1,?
2017-03-27 15:10:40.345000,670,7016,-3,448,-52,136,-641,1256,244,1088,660,584,123,6416,2457,2112,-2632,5392,-74,752,568,8016,-220,4848,1763,4872,554,6128,1,-1,?
2017-03-27 15:10:40.352000,674,7016,-10,448,-90,136,-628,1256,228,1088,637,584,118,6416,2444,2112,-2644,5392,-77,752,576,8016,-228,4848,1757,4872,565,6128,1,-1,?
2017-03-27 15:10:40.363000,655,7016,-8,448,-310,136,-615,1256,215,1088,616,584,108,6416,2450,2112,-2637,5392,-75,752,558,8016,-251,4848,1742,4872,552,6128,1,-1,?
2017-03-27 15:10:40.368000,631,7016,-10,448,-589,136,-612,1256,222,1088,632,584,112,6416,2451,2112,-2633,5392,-85,752,536,8016,-263,4848,1733,4872,528,6128,1,-1,?
2017-03-27 15:10:40.376000,623,7016,-9,448,-655,136,-617,1256,209,1088,631,584,104,6416,2440,2112,-2640,5392,-103,752,533,8016,-284,4848,1732,4872,528,6128,1,-2,?
2017-03-27 15:10:40.384000,632,7016,-7,448,-586,136,-614,1256,193,1088,619,584,90,6416,2440,2112,-2629,5392,-91,752,540,8016,-317,4848,1736,4872,547,6128,1,-2,?
2017-03-27 15:10:40.391000,642,7016,-6,448,-607,136,-607,1256,206,1088,633,584,108,6416,2449,2112,-2607,5392,-66,752,545,8016,-332,4848,1745,4872,552,6128,0,-2,?
2017-03-27 15:10:40.399000,635,7016,-3,448,-649,136,-610,1256,213,1088,642,584,130,6416,2445,2112,-2598,5392,-85,752,539,8016,-336,4848,1745,4872,540,6128,1,-2,?
2017-03-27 15:10:40.407000,622,7016,-7,448,-638,136,-615,1256,207,1088,634,584,119,6416,2434,2112,-2594,5392,-128,752,533,8016,-343,4848,1732,4872,534,6128,1,-2,?
2017-03-27 15:10:40.414000,629,7016,-11,448,-634,136,-608,1256,205,1088,631,584,112,6416,2442,2112,-2580,5392,-124,752,545,8016,-333,4848,1734,4872,553,6128,1,-2,?
2017-03-27 15:10:40.422000,646,7016,-5,448,-645,136,-594,1256,199,1088,625,584,125,6416,2452,2112,-2570,5392,-108,752,560,8016,-330,4848,1747,4872,570,6128,1,-2,?
2017-03-27 15:10:40.431000,646,7016,-6,448,-659,136,-598,1256,193,1088,617,584,122,6416,2431,2112,-2577,5392,-127,752,559,8016,-348,4848,1752,4872,566,6128,1,-2,?
2017-03-27 15:10:40.439000,646,7016,-12,448,-669,136,-607,1256,198,1088,628,584,120,6416,2422,2112,-2575,5392,-136,752,565,8016,-345,4848,1753,4872,569,6128,1,-2,?
2017-03-27 15:10:40.446000,652,7016,-5,448,-675,136,-598,1256,204,1088,643,584,137,6416,2441,2112,-2548,5392,-113,752,569,8016,-333,4848,1756,4872,584,6128,1,-2,?
2017-03-27 15:10:40.453000,648,7016,-4,448,-692,136,-594,1256,205,1088,651,584,152,6416,2437,2112,-2537,5392,-104,752,563,8016,-337,4848,1754,4872,582,6128,1,-2,?
2017-03-27 15:10:40.463000,647,7016,-6,448,-699,136,-613,1256,207,1088,662,584,167,6416,2429,2112,-2549,5392,-114,752,567,8016,-344,4848,1760,4872,580,6128,1,-2,?
2017-03-27 15:10:40.470000,654,7016,-3,448,-694,136,-622,1256,201,1088,664,584,189,6416,2438,2112,-2546,5392,-117,752,574,8016,-347,4848,1768,4872,586,6128,1,-1,?
2017-03-27 15:10:40.478000,657,7016,-5,448,-715,136,-612,1256,191,1088,658,584,189,6416,2428,2112,-2542,5392,-128,752,562,8016,-359,4848,1757,4872,581,6128,1,-1,?
2017-03-27 15:10:40.485000,673,7016,-4,448,-739,136,-624,1256,194,1088,659,584,172,6416,2411,2112,-2556,5392,-148,752,537,8016,-379,4848,1742,4872,572,6128,1,-1,?
2017-03-27 15:10:40.493000,700,7016,-4,448,-736,136,-638,1256,201,1088,663,584,166,6416,2415,2112,-2563,5392,-147,752,528,8016,-395,4848,1739,4872,571,6128,1,-1,?
2017-03-27 15:10:40.501000,702,7016,-6,448,-734,136,-626,1256,197,1088,660,584,150,6416,2413,2112,-2551,5392,-135,752,539,8016,-403,4848,1748,4872,578,6128,1,-1,?
2017-03-27 15:10:40.509000,695,7016,-5,448,-748,136,-612,1256,187,1088,648,584,120,6416,2405,2112,-2543,5392,-144,752,552,8016,-405,4848,1759,4872,587,6128,1,0,?
2017-03-27 15:10:40.517000,711,7016,-9,448,-754,136,-615,1256,186,1088,625,584,116,6416,2406,2112,-2549,5392,-158,752,555,8016,-399,4848,1766,4872,594,6128,1,0,?
2017-03-27 15:10:40.527000,722,7016,-7,448,-747,136,-620,1256,176,1088,603,584,121,6416,2390,2112,-2558,5392,-138,752,560,8016,-396,4848,1761,4872,607,6128,1,0,?
2017-03-27 15:10:40.533000,709,7016,-3,448,-740,136,-612,1256,171,1088,606,584,116,6416,2383,2112,-2556,5392,-116,752,564,8016,-400,4848,1755,4872,613,6128,1,-1,?
2017-03-27 15:10:40.540000,707,7016,-6,448,-746,136,-608,1256,188,1088,614,584,117,6416,2400,2112,-2550,5392,-136,752,558,8016,-402,4848,1757,4872,608,6128,0,-1,?
2017-03-27 15:10:40.550000,724,7016,-4,448,-775,136,-611,1256,186,1088,598,584,121,6416,2400,2112,-2554,5392,-171,752,557,8016,-405,4848,1756,4872,610,6128,0,-1,?
2017-03-27 15:10:40.556000,733,7016,-1,448,-779,136,-605,1256,171,1088,591,584,121,6416,2391,2112,-2545,5392,-179,752,561,8016,-420,4848,1751,4872,617,6128,0,-1,?
2017-03-27 15:10:40.565000,717,7016,-16,448,-806,136,-598,1256,177,1088,607,584,126,6416,2398,2112,-2532,5392,-177,752,551,8016,-436,4848,1745,4872,606,6128,0,-1,?
2017-03-27 15:10:40.571000,693,7016,-18,448,-978,136,-608,1256,173,1088,585,584,118,6416,2396,2112,-2544,5392,-201,752,529,8016,-447,4848,1731,4872,581,6128,0,-1,?
2017-03-27 15:10:40.580000,681,7016,-2,448,-1192,136,-617,1256,157,1088,556,584,93,6416,2383,2112,-2541,5392,-213,752,514,8016,-449,4848,1718,4872,559,6128,0,-1,?
2017-03-27 15:10:40.586000,688,7016,-7,448,-1252,136,-618,1256,165,1088,588,584,95,6416,2385,2112,-2514,5392,-206,752,518,8016,-458,4848,1731,4872,549,6128,-1,-1,?
2017-03-27 15:10:40.593000,707,7024,-8,448,-1217,136,-618,1256,173,1088,602,584,121,6416,2392,2112,-2515,5392,-218,752,520,8016,-475,4848,1751,4872,551,6128,-1,-1,?
2017-03-27 15:10:40.602000,708,7024,-2,456,-1218,136,-626,1256,156,1088,577,584,119,6416,2385,2112,-2527,5392,-214,752,511,8016,-473,4848,1743,4872,546,6128,-1,-2,?
2017-03-27 15:10:40.610000,697,7024,-4,456,-1226,136,-635,1256,150,1088,584,584,108,6416,2388,2112,-2515,5392,-169,752,525,8016,-462,4848,1741,4872,543,6112,-1,-2,?
2017-03-27 15:10:40.618000,705,7024,-1,456,-1217,232,-626,1256,154,1088,593,584,121,6416,2389,2112,-2518,5392,-120,752,559,8016,-453,4848,1775,4872,560,6112,-1,-2,?
2017-03-27 15:10:40.625000,724,7024,-4,456,-1207,232,-623,1272,143,1088,575,584,127,6416,2383,2112,-2519,5392,-63,752,589,8016,-426,4848,1811,4872,583,6112,-1,-2,?
2017-03-27 15:10:40.633000,735,7024,-13,456,-1200,232,-635,1272,143,1088,584,584,121,6416,2386,2112,-2496,5392,11,752,609,8016,-398,4848,1816,4872,588,6112,-1,-1,?
2017-03-27 15:10:40.640000,732,7024,-13,456,-1218,232,-637,1272,162,1088,605,584,124,6416,2388,2112,-2487,5392,66,752,616,8016,-395,4848,1811,4872,579,6112,-1,-2,?
2017-03-27 15:10:40.650000,721,7024,-5,456,-1234,232,-630,1272,158,1088,595,584,120,6424,2384,2112,-2483,5392,103,752,620,8016,-388,4848,1815,4872,589,6112,-1,-1,?
2017-03-27 15:10:40.658000,718,7024,-6,456,-1226,232,-643,1272,135,1088,593,584,124,6424,2388,7592,-2466,5392,139,752,629,8016,-371,4848,1814,4872,602,6112,-1,-1,?
2017-03-27 15:10:40.666000,720,7024,-16,456,-1230,232,-653,1272,140,1088,605,584,147,6424,2389,7592,-2474,5384,149,752,621,8016,-387,4848,1804,4872,586,6112,-1,-1,?
2017-03-27 15:10:40.672000,719,7024,-13,456,-1239,232,-643,1272,168,1088,601,584,142,6424,2386,7592,-2483,5384,135,744,611,8016,-408,4848,1802,4872,568,6112,-1,-1,?
2017-03-27 15:10:40.681000,728,7024,-5,456,-1231,232,-645,1272,179,1088,602,584,123,6424,2399,7592,-2453,5384,116,744,630,8016,-400,4848,1812,4872,577,6112,-1,-1,?
2017-03-27 15:10:40.689000,737,7024,-6,456,-1226,232,-645,1272,172,1088,598,584,141,6424,2405,7592,-2434,5384,95,744,633,8016,-396,4848,1816,4872,586,6112,-1,-1,?
2017-03-27 15:10:40.697000,720,7024,-6,456,-1213,232,-639,1272,154,1088,574,584,160,6424,2390,7592,-2439,5384,77,744,609,8016,-416,4848,1802,4880,583,6112,-1,-1,?
2017-03-27 15:10:40.705000,709,7024,-1,456,-1191,232,-642,1272,145,1088,566,584,139,6424,2382,7592,-2446,5384,61,752,597,8016,-436,4848,1785,4880,576,6112,0,-1,?
