Timestamp,F3 Value,F3 Quality,FC5 Value,FC5 Quality,F7 Value,F7 Quality,T7 Value,T7 Quality,P7 Value,P7 Quality,O1 Value,O1 Quality,O2 Value,O2 Quality,P8 Value,P8 Quality,T8 Value,T8 Quality,F8 Value,F8 Quality,AF4 Value,AF4 Quality,FC6 Value,FC6 Quality,F4 Value,F4 Quality,AF3 Value,AF3 Quality,X Value,Y Value,Z Value
2017-03-27 15:03:21.180000,513,0,-59,0,-565,0,-627,0,139,0,495,0,-34,0,188,0,821,0,-184,0,336,0,-125,0,700,0,383,0,2,-2,?
2017-03-27 15:03:21.187000,532,6832,-50,0,-550,0,-585,0,151,0,486,0,-32,0,205,0,831,0,-164,0,337,0,-121,0,713,0,388,0,2,-2,?
2017-03-27 15:03:21.196000,544,6832,-62,1184,-549,0,-587,0,136,0,424,0,-37,0,199,0,826,0,-170,0,334,0,-128,0,701,0,385,0,2,-2,?
2017-03-27 15:03:21.204000,528,6832,-65,1184,-567,0,-635,0,109,0,405,0,-46,0,176,0,816,0,-190,0,318,0,-139,0,689,0,373,6408,2,-2,?
2017-03-27 15:03:21.211000,524,6832,-58,1184,-577,296,-639,0,117,0,453,0,-32,0,182,0,821,0,-188,0,315,0,-133,0,700,0,370,6408,2,-2,?
2017-03-27 15:03:21.219000,540,6832,-61,1184,-571,296,-606,976,130,0,462,0,-25,0,193,0,824,0,-179,0,332,0,-124,0,710,0,380,6408,2,-2,?
2017-03-27 15:03:21.227000,546,6832,-56,1184,-568,296,-595,976,125,1080,455,0,-27,0,178,0,824,0,-179,0,336,0,-135,0,710,0,386,6408,2,-2,?
2017-03-27 15:03:21.235000,546,6832,-58,1184,-577,296,-598,976,135,1080,498,944,-8,0,176,0,837,0,-181,0,327,0,-145,0,710,0,376,6408,2,-3,?
2017-03-27 15:03:21.245000,557,6832,-59,1184,-578,296,-593,976,145,1080,503,944,4,6488,208,0,839,0,-175,0,335,0,-131,0,723,0,384,6408,2,-3,?
2017-03-27 15:03:21.251000,559,6832,-55,1184,-561,296,-596,976,135,1080,471,944,-19,6488,217,6680,823,0,-176,0,342,0,-124,0,727,0,400,6408,2,-4,?
2017-03-27 15:03:21.259000,546,6832,-57,1184,-569,296,-622,976,129,1080,485,944,-34,6488,183,6680,815,4776,-188,0,319,0,-134,0,710,0,375,6408,2,-5,?
2017-03-27 15:03:21.266000,548,6832,-52,1184,-580,296,-629,976,143,1080,496,944,-20,6488,185,6680,833,4776,-167,800,312,0,-129,0,717,0,363,6408,1,-6,?
2017-03-27 15:03:21.274000,545,6832,-58,1184,-560,296,-595,976,160,1080,502,944,7,6488,231,6680,855,4776,-141,800,340,80,-114,0,742,0,382,6408,1,-7,?
2017-03-27 15:03:21.282000,517,6832,-61,1184,-572,296,-595,976,160,1080,549,944,26,6488,236,6680,841,4776,-187,800,321,80,-126,4648,729,0,356,6408,0,-8,?
2017-03-27 15:03:21.291000,512,6832,-56,1184,-613,296,-631,976,150,1080,571,944,17,6488,203,6680,829,4776,-208,800,298,80,-129,4648,710,5304,328,6408,0,-9,?
2017-03-27 15:03:21.297000,548,6832,-60,1184,-600,296,-622,976,152,1080,548,944,3,6488,209,6680,861,4776,-128,800,363,80,-86,4648,739,5304,358,6408,0,-10,?
2017-03-27 15:03:21.306000,574,6832,-56,1184,-534,296,-583,976,153,1080,542,944,-5,6488,217,6680,874,4776,-73,800,431,80,-79,4648,770,5304,414,6408,-1,-11,?
2017-03-27 15:03:21.313000,560,6832,-59,1184,-517,296,-591,976,139,1080,547,944,-33,6488,168,6680,839,4776,-72,800,444,80,-134,4664,749,5304,436,6408,-1,-11,?
2017-03-27 15:03:21.321000,565,6832,-61,1184,-547,296,-643,976,113,1080,525,944,-66,6488,114,6680,802,4776,-26,800,483,80,-125,4664,736,5304,441,6408,-2,-12,?
2017-03-27 15:03:21.329000,610,6832,-54,1184,-506,296,-656,976,93,1080,527,944,-33,6488,126,6680,776,4776,65,800,573,80,-37,4664,773,5304,513,6408,-2,-13,?
2017-03-27 15:03:21.337000,636,6832,-58,1184,-419,296,-596,976,102,1080,566,944,29,6488,181,6680,780,4776,179,800,659,80,6,4664,808,5304,645,6408,-2,-13,?
2017-03-27 15:03:21.344000,633,6832,-52,1184,-403,296,-583,976,121,1080,572,944,14,6488,185,6680,800,4776,284,800,708,80,-2,4664,824,5304,699,6408,-3,-14,?
2017-03-27 15:03:21.354000,622,6832,-50,1184,-408,296,-660,976,105,1080,514,944,-59,6488,118,6680,773,4776,339,800,710,80,6,4664,817,5304,696,6408,-3,-14,?
2017-03-27 15:03:21.361000,627,6832,-53,1184,-371,296,-674,976,77,1080,481,944,-73,6488,96,6680,750,4776,393,800,632,80,35,4664,818,5304,813,6408,-3,-14,?
2017-03-27 15:03:21.375000,658,6832,-54,1184,-371,296,-616,976,93,1080,545,944,-14,6488,156,6680,722,4776,463,800,472,80,52,4664,854,5304,900,6408,-3,-15,?
2017-03-27 15:03:21.377000,667,6832,-59,1184,-378,296,-631,976,109,1080,555,944,9,6488,191,6680,806,4776,535,800,661,80,71,4664,864,5304,863,6408,-3,-15,?
2017-03-27 15:03:21.385000,654,6832,-49,1184,-323,296,-671,976,86,1080,501,944,0,6488,174,6680,1167,4776,630,800,736,80,126,4664,848,5304,926,6408,-3,-15,?
2017-03-27 15:03:21.392000,697,6832,-46,1184,-271,296,-623,976,92,1080,523,944,29,6488,184,6680,1455,4776,694,800,431,80,183,4664,859,5304,988,6408,-3,-15,?
2017-03-27 15:03:21.400000,743,6832,-50,1184,-226,296,-593,976,106,1080,529,944,27,6488,191,6680,1373,4776,744,800,1856,80,193,4664,860,5304,891,6408,-3,-15,?
2017-03-27 15:03:21.408000,682,6832,-53,1184,-138,296,-673,976,78,1080,462,944,-22,6488,148,6680,1249,4776,889,800,5318,80,199,4664,829,5304,904,6408,-3,-15,?
2017-03-27 15:03:21.416000,619,6832,-60,1184,-8,296,-712,976,54,1080,415,944,-18,6488,121,6680,1301,4776,1063,800,7401,80,267,4664,823,5304,1178,6408,-3,-15,?
2017-03-27 15:03:21.423000,657,6832,-42,1184,115,296,-659,976,58,1080,400,944,15,6488,147,6680,1309,4776,1144,800,7138,80,343,4664,848,5304,1588,6408,-3,-15,?
2017-03-27 15:03:21.431000,677,6832,-18,1184,189,296,-642,976,50,1080,393,944,11,6488,186,6680,1271,4776,1186,800,6945,80,383,4664,842,5304,2262,6408,-3,-14,?
2017-03-27 15:03:21.438000,621,6832,11,1184,225,296,-675,976,48,1080,412,944,3,6488,191,6680,1273,4776,1223,800,7226,80,422,4664,803,5304,3395,6408,-3,-14,?
2017-03-27 15:03:21.447000,584,6832,79,1184,263,296,-687,976,53,1080,413,944,-23,6488,157,6680,1221,4776,1264,800,7082,80,465,4664,787,5304,4905,6408,-2,-14,?
2017-03-27 15:03:21.454000,599,6832,152,1184,315,296,-668,976,47,1080,395,944,-29,6488,157,6680,1185,4776,1452,800,6943,80,513,4664,797,5304,6388,6408,-2,-13,?
2017-03-27 15:03:21.463000,610,6832,207,1184,356,296,-646,976,58,1080,403,944,19,6488,199,6680,1229,4776,1796,800,6943,80,574,4664,801,5304,7159,6408,-2,-12,?
2017-03-27 15:03:21.469000,590,6832,225,1184,404,296,-622,976,68,1080,374,944,46,6488,213,6680,1256,4776,2091,800,6946,80,640,4664,787,5304,7115,6408,-2,-12,?
2017-03-27 15:03:21.477000,571,6832,215,1184,472,296,-619,976,49,1080,325,944,38,6488,202,6680,1198,4776,2228,800,6943,80,691,4664,775,5304,7008,6408,-1,-11,?
2017-03-27 15:03:21.485000,550,6832,210,1184,509,296,-648,976,22,1080,307,944,32,6488,187,6680,1117,4776,2250,800,6946,80,712,4664,758,5304,7054,6408,-1,-11,?
2017-03-27 15:03:21.493000,510,6832,207,1184,514,296,-665,976,16,1080,321,944,18,6488,165,6680,1061,4776,2250,800,6946,80,716,4664,723,5304,6990,6408,-1,-11,?
2017-03-27 15:03:21.501000,497,6832,212,1184,544,296,-643,976,37,1080,358,944,22,6488,164,6680,1008,4776,2252,800,6945,80,730,4664,718,5304,6932,6408,-1,-11,?
2017-03-27 15:03:21.510000,513,6832,204,1184,583,296,-626,976,44,1080,358,944,42,6488,181,6680,971,4776,2236,800,6945,80,737,4664,740,5304,6935,6408,0,-11,?
2017-03-27 15:03:21.516000,506,6832,204,1184,591,296,-649,976,9,1080,309,944,14,6488,176,6680,948,4776,2205,800,6945,80,715,4664,741,5304,6936,6408,0,-10,?
2017-03-27 15:03:21.524000,490,6832,217,1184,592,296,-669,976,-11,1080,288,944,-22,6488,165,6680,959,4776,2183,800,6945,80,691,4664,734,5304,6934,6408,0,-10,?
2017-03-27 15:03:21.532000,485,6832,202,1184,570,296,-656,976,5,1080,287,944,4,6488,167,6680,1024,4776,2163,800,6945,80,679,4664,729,5304,6932,6408,0,-10,?
2017-03-27 15:03:21.540000,489,6832,199,1184,499,296,-639,976,2,1080,247,944,50,6488,183,6680,1043,4776,2137,800,6945,80,669,4664,728,5304,6935,6408,1,-10,?
2017-03-27 15:03:21.549000,484,6832,206,1184,444,296,-645,976,-10,1080,230,944,52,6488,207,6680,966,4776,2107,800,6945,80,643,4664,722,5304,6935,6408,1,-9,?
2017-03-27 15:03:21.556000,456,6832,200,1184,442,296,-663,976,3,1080,284,944,23,6488,202,6680,884,4776,2046,800,6945,80,582,4664,699,5304,6935,6408,1,-9,?
2017-03-27 15:03:21.564000,440,6832,207,1184,458,296,-656,976,20,1080,335,944,23,6488,180,6680,846,4776,1978,800,6945,80,571,4664,689,5304,6938,6408,1,-9,?
2017-03-27 15:03:21.571000,438,6832,209,1184,461,296,-640,976,35,1080,352,944,31,6488,172,6680,790,4776,1943,800,6945,80,600,4664,693,5304,6937,6408,1,-8,?
2017-03-27 15:03:21.580000,423,6832,207,1184,451,296,-650,976,32,1080,348,944,7,6488,156,6680,743,4776,1900,800,6945,80,540,4664,680,5304,6939,6408,1,-8,?
2017-03-27 15:03:21.588000,413,6832,211,1184,440,296,-662,976,2,1080,315,944,-12,6488,155,6680,760,4776,1830,800,6945,80,439,4664,670,5304,6948,6408,1,-8,?
2017-03-27 15:03:21.596000,426,6832,201,1184,407,296,-656,976,1,1080,303,944,-7,6488,182,6680,779,4776,1759,800,6945,80,411,4664,673,5304,6927,6408,2,-8,?
2017-03-27 15:03:21.602000,432,6832,201,1184,371,296,-647,976,26,1080,322,944,10,6488,187,6680,755,4776,1695,800,6945,80,404,4664,677,5304,6901,6408,2,-8,?
2017-03-27 15:03:21.611000,419,6832,201,1184,346,296,-642,976,18,1080,305,944,27,6488,174,6680,749,4776,1641,800,6945,80,378,4664,674,5304,6877,6408,2,-8,?
2017-03-27 15:03:21.618000,418,6832,186,1184,266,296,-654,976,-7,1080,287,944,30,6488,173,6680,771,4776,1567,800,6945,80,348,4664,662,5304,6809,6408,2,-8,?
2017-03-27 15:03:21.629000,428,6832,191,1184,149,296,-668,976,-4,1080,320,944,22,6488,174,6680,770,4776,1454,800,6945,80,306,4664,654,5304,6746,6408,2,-8,?
2017-03-27 15:03:21.636000,434,6832,194,1184,102,296,-653,976,5,1080,344,944,22,6488,185,6680,776,4776,1373,800,6945,80,326,4664,663,5304,6697,6408,2,-8,?
2017-03-27 15:03:21.646000,434,6832,189,1184,83,296,-652,976,-3,1080,338,944,32,6488,204,6680,817,4776,1334,800,6945,80,369,4664,673,5304,6619,6408,2,-8,?
2017-03-27 15:03:21.652000,424,6832,185,1184,27,296,-672,976,-6,1080,342,944,31,6488,205,6680,832,4776,1279,800,6945,80,309,4664,661,5304,6529,6408,2,-7,?
2017-03-27 15:03:21.660000,427,6832,174,1184,-21,296,-650,976,9,1080,355,944,40,6488,209,6680,820,4776,1235,800,6945,80,250,4664,656,5304,6416,6408,2,-7,?
2017-03-27 15:03:21.668000,445,6832,176,1184,-69,296,-625,976,30,1080,386,944,57,6488,222,6680,834,4776,1207,800,6945,80,271,4664,677,5304,6318,6408,2,-7,?
2017-03-27 15:03:21.674000,434,6832,170,1184,-153,296,-635,976,32,1080,396,944,49,6488,216,6680,875,4776,1111,800,6945,80,268,4664,673,5304,6225,6408,2,-7,?
2017-03-27 15:03:21.683000,419,6832,160,1184,-215,296,-629,976,23,1080,379,944,25,6488,202,6680,863,4776,911,800,6945,80,220,4664,654,5304,6093,6408,2,-7,?
2017-03-27 15:03:21.691000,452,6832,166,1184,-218,296,-604,976,28,1080,404,944,31,6488,191,6680,780,4776,694,800,6945,80,208,4664,662,5304,5996,6408,2,-6,?
2017-03-27 15:03:21.697000,473,6832,156,1184,-215,296,-618,976,18,1080,390,944,44,6488,181,6680,724,4776,553,800,6945,80,217,4664,675,5304,5930,6408,2,-6,?
2017-03-27 15:03:21.704000,453,6832,146,1200,-247,296,-640,976,-12,1080,322,944,29,6488,178,6680,741,4776,487,800,6945,80,201,4664,671,5304,5846,6408,2,-6,?
2017-03-27 15:03:21.712000,445,6832,143,1200,-277,296,-621,976,0,1080,345,944,26,6488,193,6680,764,4776,450,800,6945,80,161,4664,662,5304,5761,7080,2,-6,?
2017-03-27 15:03:21.720000,445,6832,136,1200,-287,312,-615,976,32,1080,383,944,29,6488,200,6680,766,4776,418,800,6945,80,137,4664,659,5304,5674,7080,2,-6,?
2017-03-27 15:03:21.728000,428,6832,132,1200,-326,312,-645,960,5,1080,320,944,13,6488,188,6680,780,4776,387,800,6945,80,131,4664,648,5304,5567,7080,2,-6,?
2017-03-27 15:03:21.735000,441,6832,127,1200,-341,312,-620,960,1,1080,327,944,27,6488,207,6680,800,4776,374,800,6945,80,125,4664,661,5304,5494,7080,2,-6,?
2017-03-27 15:03:21.744000,492,6832,135,1200,-290,312,-558,960,57,1080,410,1008,39,6488,233,6680,784,4776,388,800,6945,80,148,4664,716,5304,5488,7080,2,-6,?
2017-03-27 15:03:21.751000,464,6832,125,1200,-316,312,-594,960,38,1080,368,1008,-33,6464,186,6680,735,4776,347,800,6945,80,146,4664,707,5304,5417,7080,3,-6,?
2017-03-27 15:03:21.760000,395,6832,108,1200,-418,312,-667,960,-31,1080,283,1008,-89,6464,121,6680,714,4776,255,800,6946,80,91,4664,648,5304,5286,7080,3,-6,?
2017-03-27 15:03:21.767000,421,6832,119,1200,-431,312,-642,960,-17,1080,325,1008,-29,6464,139,6680,737,4712,237,800,6947,80,77,4664,667,5304,5251,7080,3,-6,?
2017-03-27 15:03:21.775000,443,6832,117,1200,-406,312,-615,960,14,1080,378,1008,5,6464,176,6680,743,4712,253,208,6944,80,92,4664,693,5304,5240,7080,3,-6,?
2017-03-27 15:03:21.782000,400,6832,110,1200,-450,312,-651,960,-26,1080,337,1008,-34,6464,156,6680,732,4712,216,208,6943,552,72,4664,660,5304,5152,7080,3,-6,?
2017-03-27 15:03:21.790000,392,6832,110,1200,-487,312,-659,960,-41,1080,318,1008,-37,6464,136,6680,735,4712,179,208,6950,552,52,4656,648,5304,5081,7080,3,-6,?
2017-03-27 15:03:21.798000,411,6832,106,1200,-492,312,-634,960,-3,1080,357,1008,-18,6464,136,6680,729,4712,168,208,6931,552,51,4656,658,5288,5066,7080,3,-6,?
2017-03-27 15:03:21.806000,404,6832,105,1200,-522,312,-632,960,-13,1080,348,1008,-22,6464,142,6680,740,4712,137,192,6905,552,34,4656,653,5288,5039,7080,3,-6,?
2017-03-27 15:03:21.814000,404,6832,98,1200,-530,312,-621,960,-47,1080,325,1008,-8,6464,157,6680,769,4712,111,192,6925,552,22,4656,665,5288,4998,7080,3,-6,?
2017-03-27 15:03:21.821000,410,6832,101,1200,-526,312,-622,960,-44,1080,350,1008,0,6464,147,6680,736,4712,92,192,6955,552,19,4656,669,5288,4942,7080,3,-6,?
2017-03-27 15:03:21.829000,386,6832,101,1200,-558,312,-660,960,-34,1080,356,1008,-28,6464,120,6680,704,4712,54,192,6950,552,-6,4656,632,5288,4856,7080,3,-6,?
2017-03-27 15:03:21.837000,369,6832,90,1200,-585,312,-684,960,-50,1080,334,1008,-42,6464,122,6680,732,4712,40,192,6943,552,-23,4656,618,5288,4786,7080,3,-6,?
2017-03-27 15:03:21.849000,382,6832,94,1200,-590,312,-669,960,-45,1080,343,1008,-21,6464,140,6680,736,4712,44,192,6949,552,0,4656,648,5288,4752,7080,3,-5,?
2017-03-27 15:03:21.853000,412,6832,96,1200,-593,312,-634,960,-21,1080,365,1008,-3,6464,163,6680,732,4712,43,192,6948,552,29,4656,677,5288,4719,7080,3,-5,?
2017-03-27 15:03:21.861000,438,6832,94,1200,-590,312,-617,960,-23,1080,360,1008,14,6464,188,6680,766,4712,46,192,6947,552,23,4656,701,5288,4673,7080,3,-5,?
2017-03-27 15:03:21.869000,433,6832,87,1200,-601,312,-634,960,-33,1080,345,1008,33,6464,196,6680,778,4712,49,192,6950,552,6,4656,713,5288,4605,7080,3,-5,?
2017-03-27 15:03:21.878000,417,6832,77,1200,-644,312,-654,960,-28,1080,348,1008,28,6464,189,6680,755,4712,41,192,6946,552,-4,4656,699,5288,4528,7080,3,-5,?
2017-03-27 15:03:21.886000,419,6832,81,1200,-667,312,-653,960,-33,1080,356,1008,3,6464,181,6680,747,4712,21,192,6946,552,-16,4656,690,5288,4480,7080,3,-5,?
2017-03-27 15:03:21.894000,422,6832,74,1200,-666,312,-644,960,-51,1080,341,1008,-9,6464,167,6680,752,4712,4,192,6947,552,0,4656,690,5288,4419,7080,3,-5,?
2017-03-27 15:03:21.901000,424,6832,71,1200,-676,312,-639,960,-50,1080,334,1008,3,6464,165,6680,762,4712,6,192,6947,552,-18,4656,695,5288,4338,7080,3,-5,?
2017-03-27 15:03:21.907000,434,6832,76,1200,-686,312,-636,960,-27,1080,357,1008,16,6464,190,6680,779,4712,21,192,6947,552,-4,4656,707,5288,4282,7080,3,-5,?
2017-03-27 15:03:21.916000,425,6832,62,1200,-704,312,-652,960,-24,1080,364,1008,9,6464,199,6680,786,4712,13,192,6947,552,274,4656,699,5288,4225,7080,3,-5,?
2017-03-27 15:03:21.923000,408,6832,59,1200,-725,312,-664,960,-31,1080,355,1008,-5,6464,184,6680,794,4712,-13,192,6947,552,650,4656,686,5288,4152,7080,3,-5,?
2017-03-27 15:03:21.932000,411,6832,65,1200,-721,312,-657,960,-28,1080,348,1008,-4,6464,184,6680,812,4712,-21,192,6947,552,677,4656,680,5288,4101,7080,3,-4,?
2017-03-27 15:03:21.941000,419,6832,62,1200,-719,312,-653,960,-31,1080,319,1008,1,6464,185,6680,810,4712,-20,192,6955,552,344,4656,672,5288,4065,7080,3,-4,?
2017-03-27 15:03:21.948000,420,6832,55,1200,-725,312,-643,960,-41,1080,300,1008,-6,6464,177,6680,802,4712,-10,192,7096,552,31,4656,676,5288,4023,7080,3,-4,?
2017-03-27 15:03:21.955000,415,6832,48,1200,-719,312,-619,960,-28,1080,331,1008,-13,6464,183,6680,819,4712,6,192,7364,552,-20,4656,684,5288,3986,7080,3,-4,?
2017-03-27 15:03:21.962000,400,6832,51,1200,-743,312,-630,960,-11,1080,347,1008,-16,6464,181,6680,824,4712,-32,192,6991,552,46,4656,677,5288,3943,7080,3,-4,?
2017-03-27 15:03:21.971000,393,6832,44,1200,-769,312,-651,960,-21,1080,325,1008,-10,6464,171,6680,807,4712,-74,192,6604,552,4,4656,669,5288,3889,7080,3,-3,?
2017-03-27 15:03:21.979000,407,6832,45,1200,-743,312,-631,960,-25,1080,322,1008,0,6464,188,6680,810,4712,-21,192,7402,552,-70,4656,679,5288,3858,7080,3,-3,?
2017-03-27 15:03:21.986000,415,6832,54,1200,-729,312,-598,960,-9,1080,344,1008,7,6464,216,6680,848,4712,-28,192,5137,552,-43,4656,688,5288,3827,7080,3,-3,?
2017-03-27 15:03:21.994000,422,6832,41,1200,-747,312,-589,960,8,1080,369,1008,29,6464,230,6680,882,4712,-257,192,-1068,552,-19,4656,694,5288,3783,7080,3,-3,?
2017-03-27 15:03:22.001000,437,6832,41,1200,-753,312,-604,960,4,1080,370,1008,32,6464,211,6680,864,4712,-405,192,-1994,552,-35,4656,702,5288,3743,7080,3,-3,?
2017-03-27 15:03:22.011000,421,6832,46,1200,-764,312,-626,960,-21,1080,335,1008,-1,6464,170,6680,812,4712,-213,192,4116,552,-44,4656,686,5288,3690,7080,3,-3,?
2017-03-27 15:03:22.017000,413,6832,39,1200,-780,312,-633,960,-25,1080,329,1008,-3,6464,163,6680,804,4712,0,192,7607,552,-57,4656,684,5288,3644,7080,3,-3,?
2017-03-27 15:03:22.026000,442,6832,41,1200,-776,312,-616,960,-3,1080,356,1008,35,6464,195,6680,850,4712,-15,192,6251,552,-55,4656,704,5288,3628,7080,3,-3,?
2017-03-27 15:03:22.033000,447,6832,40,1200,-772,312,-598,960,9,1080,351,1008,38,6464,215,6680,870,4712,-45,192,6142,552,-36,4656,702,5288,3603,7080,3,-3,?
2017-03-27 15:03:22.040000,436,6832,43,1200,-774,312,-594,960,8,1080,329,1008,6,6464,208,6680,858,4712,37,192,7552,552,-30,4656,728,5288,3563,7080,3,-3,?
2017-03-27 15:03:22.048000,447,6832,41,1200,-774,312,-592,960,23,1080,347,1008,-1,6464,207,6680,863,4712,46,192,6803,552,-35,4656,708,5288,3530,7080,3,-3,?
2017-03-27 15:03:22.057000,446,6832,29,1200,-777,312,-595,960,35,1080,371,1008,26,6464,214,6680,876,4712,-23,192,6243,552,-50,4656,583,5288,3488,7080,3,-3,?
2017-03-27 15:03:22.064000,425,6832,33,1200,-769,312,-599,960,26,1080,371,1008,30,6464,211,6680,862,4712,-19,192,6514,552,-57,4656,567,5288,3434,7080,3,-3,?
2017-03-27 15:03:22.073000,429,6832,30,1200,-743,312,-588,960,29,1080,386,1008,-5,6464,211,6680,848,4712,-111,192,2180,552,-47,4656,691,5288,3396,7080,3,-3,?
2017-03-27 15:03:22.079000,453,6832,27,1200,-738,312,-588,960,37,1080,407,1008,-6,6464,228,6680,872,4712,-455,192,-5498,552,-47,4656,736,5288,3371,7080,3,-3,?
2017-03-27 15:03:22.087000,449,6832,27,1200,-769,312,-618,960,25,1080,396,1008,44,6464,235,6680,882,4712,-705,192,-7691,552,-68,4656,694,5288,3323,7080,3,-3,?
2017-03-27 15:03:22.095000,433,6832,19,1200,-779,312,-616,960,22,1080,378,1008,70,6464,215,6680,868,4712,-628,192,-5293,552,-68,4656,700,5288,3270,7080,3,-3,?
2017-03-27 15:03:22.103000,441,6832,18,1200,-763,312,-598,960,28,1080,380,1008,60,6464,217,6680,872,4712,-525,192,-5144,552,-52,4656,712,5288,3240,7080,3,-3,?
2017-03-27 15:03:22.114000,445,6832,15,1200,-773,312,-619,960,17,1080,382,1008,58,6464,238,6680,870,4712,-478,192,-3455,552,-62,4656,682,5288,3204,7080,2,-3,?
2017-03-27 15:03:22.120000,444,6832,20,1200,-792,312,-626,960,12,1080,390,1008,66,6464,226,6680,846,4712,-275,192,2659,552,-76,4656,679,5288,3168,7080,2,-3,?
2017-03-27 15:03:22.136000,464,6832,27,1200,-784,312,-596,960,26,1080,410,1008,61,6464,201,6680,845,4712,-137,192,3867,552,-71,4656,700,5288,3151,7080,3,-3,?
2017-03-27 15:03:22.138000,475,6832,15,1200,-772,312,-588,960,35,1080,409,1008,60,6464,210,6680,868,4712,-263,192,-1360,552,-62,4656,709,5288,3125,7080,2,-3,?
2017-03-27 15:03:22.151000,470,6832,15,1200,-797,312,-610,960,28,1080,390,1008,60,6464,227,6680,868,4712,-463,192,-5508,552,-51,4656,713,5288,3087,7080,2,-2,?
2017-03-27 15:03:22.151000,462,6832,13,1200,-858,312,-617,960,11,1080,378,1008,44,6464,208,6680,854,4712,-557,192,-4911,552,-46,4656,717,5288,3049,7080,2,-2,?
2017-03-27 15:03:22.162000,465,6832,9,1200,-901,312,-606,960,6,1080,379,1008,23,6464,191,6680,845,4712,-413,192,-477,552,-48,4656,721,5288,3020,7080,2,-2,?
2017-03-27 15:03:22.165000,479,6832,15,1200,-879,312,-603,960,22,1080,386,1008,23,6464,209,6680,848,4712,-137,192,4169,552,-44,4656,727,5288,3000,7080,2,-2,?
2017-03-27 15:03:22.174000,490,6832,9,1200,-843,312,-604,960,42,1080,396,1008,39,6464,235,6680,871,4712,-12,192,6178,552,-36,4656,731,5288,2980,7080,2,-2,?
2017-03-27 15:03:22.181000,501,6832,9,1200,-827,312,-581,960,51,1080,408,1008,57,6464,239,6680,886,4712,-40,192,5246,552,-26,4656,742,5288,2962,7080,2,-2,?
2017-03-27 15:03:22.189000,513,6832,13,1200,-809,312,-571,960,47,1080,403,1008,63,6464,231,6680,875,4712,-149,192,952,552,-10,4656,753,5288,2938,7080,2,-2,?
2017-03-27 15:03:22.198000,506,6832,7,1200,-809,312,-615,960,28,1080,382,1008,35,6464,215,6680,852,4712,-447,192,-5655,552,-13,4656,744,5288,2893,7080,2,-2,?
2017-03-27 15:03:22.205000,483,6832,4,1208,-830,312,-643,960,19,1080,375,1008,2,6464,201,6680,838,4712,-729,192,-7969,552,-42,4656,729,5288,2837,7080,2,-2,?
2017-03-27 15:03:22.214000,481,6832,-5,1208,-826,312,-611,960,31,1080,387,1008,19,6464,218,6680,856,4712,-738,192,-7114,552,-52,4656,733,5288,2801,4056,2,-2,?
2017-03-27 15:03:22.220000,499,6832,-1,1208,-846,296,-592,960,35,1080,397,1008,54,6464,235,6680,873,4712,-738,192,-8137,552,-39,4656,753,5288,2783,4056,2,-2,?
2017-03-27 15:03:22.228000,495,6832,2,1208,-920,296,-618,960,23,1080,408,1008,48,6464,224,6680,855,4712,-640,192,-4561,552,-35,4656,758,5288,2745,4056,2,-2,?
2017-03-27 15:03:22.236000,484,6832,-4,1208,-973,296,-622,960,10,1080,399,1008,28,6464,225,6680,854,4712,-219,192,3920,552,-30,4656,754,5288,2704,4056,2,-2,?
2017-03-27 15:03:22.245000,496,6832,-1,1208,-991,296,-602,960,-1,1080,371,1016,31,6464,232,6680,877,4712,100,192,8001,552,-28,4656,756,5288,2690,4056,2,-2,?
2017-03-27 15:03:22.253000,505,6832,-5,1208,-1030,296,-603,960,1,1080,374,1016,32,6480,224,6680,862,4712,83,192,7156,552,-37,4656,753,5288,2672,4056,2,-2,?
2017-03-27 15:03:22.261000,499,6832,-7,1208,-1074,296,-624,960,10,1080,385,1016,26,6480,222,6664,841,4712,44,192,7028,552,-45,4656,752,5288,2632,4056,2,-2,?
2017-03-27 15:03:22.269000,500,6832,-5,1208,-1082,296,-630,960,10,1080,380,1016,32,6480,231,6664,863,4704,93,192,7622,552,-41,4656,753,5288,2599,4056,2,-2,?
2017-03-27 15:03:22.278000,506,6832,-7,1208,-1084,296,-611,960,12,1080,395,1016,37,6480,234,6664,877,4704,87,216,7168,552,-35,4656,754,5288,2588,4056,2,-2,?
2017-03-27 15:03:22.284000,506,6832,-1,1208,-1112,296,-603,960,21,1080,416,1016,26,6480,240,6664,865,4704,76,216,6933,0,-32,4656,759,5288,2570,4056,2,-2,?
2017-03-27 15:03:22.294000,497,6832,-11,1208,-1133,296,-617,960,19,1080,413,1016,19,6480,236,6664,856,4704,73,216,6941,0,-37,4776,753,5288,2525,4056,2,-2,?
2017-03-27 15:03:22.299000,494,6832,-14,1208,-1133,296,-618,960,13,1080,407,1016,28,6480,223,6664,853,4704,50,216,6937,0,-41,4776,749,5304,2498,4056,2,-2,?
2017-03-27 15:03:22.306000,504,6832,-5,1208,-1132,296,-592,960,26,1080,415,1016,42,6480,234,6664,862,4704,66,216,6931,0,-34,4776,767,5304,2495,4056,2,-2,?
2017-03-27 15:03:22.317000,504,6832,-13,1208,-1141,296,-591,960,37,1080,416,1016,44,6480,254,6664,875,4704,83,216,6938,0,-34,4776,773,5304,2471,4056,2,-2,?
2017-03-27 15:03:22.322000,498,6832,-13,1208,-1159,296,-607,960,25,1080,405,1016,33,6480,249,6664,874,4704,60,216,6933,0,-36,4776,759,5304,2434,4056,2,-2,?
2017-03-27 15:03:22.330000,507,6832,-10,1208,-1163,296,-597,960,27,1080,405,1016,34,6480,236,6664,863,4704,57,216,6935,0,-22,4776,755,5304,2413,4056,2,-2,?
2017-03-27 15:03:22.337000,513,6832,-12,1208,-1167,296,-595,960,37,1080,414,1016,40,6480,231,6664,847,4704,84,216,6937,0,-12,4776,760,5304,2400,4056,2,-2,?
2017-03-27 15:03:22.345000,501,6832,-16,1208,-1190,296,-614,960,24,1080,413,1016,20,6480,220,6664,846,4704,81,216,6937,0,-32,4776,746,5304,2369,4056,2,-2,?
2017-03-27 15:03:22.354000,493,6832,-23,1208,-1203,296,-614,960,20,1080,399,1016,7,6480,225,6664,865,4704,69,216,6935,0,-55,4776,726,5304,2330,4056,2,-1,?
2017-03-27 15:03:22.362000,498,6832,-16,1208,-1199,296,-605,960,36,1080,399,1016,24,6480,242,6664,882,4704,77,216,6935,0,-56,4776,731,5304,2312,4056,2,-1,?
2017-03-27 15:03:22.369000,500,6832,-17,1208,-1191,296,-599,960,44,1080,411,1016,41,6480,252,6664,895,4704,102,216,6936,0,-40,4776,748,5304,2303,4056,2,-1,?
2017-03-27 15:03:22.379000,510,6832,-23,1208,-1169,296,-577,960,54,1080,421,1016,42,6480,261,6664,897,4704,135,216,6935,0,-18,4776,760,5304,2295,4056,2,-1,?
2017-03-27 15:03:22.384000,516,6832,-21,1208,-1161,296,-575,960,58,1080,413,1016,25,6480,261,6664,880,4704,139,216,6935,0,-22,4776,758,5304,2277,4056,2,-1,?
2017-03-27 15:03:22.394000,502,6832,-28,1208,-1172,296,-597,960,39,1080,403,1016,2,6480,250,6664,886,4704,117,216,6935,0,-44,4776,742,5304,2253,4056,2,-1,?
2017-03-27 15:03:22.400000,515,6832,-22,1208,-1153,296,-592,960,39,1080,423,1016,12,6480,250,6664,901,4704,124,216,6935,0,-29,4776,754,5304,2248,4056,2,-1,?
2017-03-27 15:03:22.411000,544,6832,-15,1208,-1132,296,-575,960,65,1080,440,1016,52,6480,272,6664,905,4704,161,216,6935,0,-4,4776,778,5304,2248,4056,2,-1,?
2017-03-27 15:03:22.417000,533,6832,-26,1208,-1143,296,-593,960,64,1080,420,1016,68,6480,276,6664,918,4704,164,216,6935,0,-17,4776,765,5304,2223,4056,2,-1,?
2017-03-27 15:03:22.425000,506,6832,-28,1208,-1154,296,-610,960,51,1080,399,1016,38,6480,261,6664,918,4704,135,216,6935,0,-39,4776,739,5304,2186,4056,2,-1,?
2017-03-27 15:03:22.431000,511,6832,-28,1208,-1143,296,-592,960,60,1080,411,1016,-6,6480,273,6664,925,4704,135,216,6935,0,-29,4776,733,5304,2174,4056,2,-1,?
2017-03-27 15:03:22.439000,534,6832,-23,1208,-1136,296,-591,960,64,1080,425,1016,-33,6480,290,6664,960,4704,159,216,6935,0,-24,4776,752,5304,2181,4056,2,-1,?
2017-03-27 15:03:22.447000,528,6832,-24,1208,-1134,296,-606,960,61,1080,421,1016,-48,6480,275,6664,974,4704,161,216,6935,0,-30,4776,763,5304,2168,4056,2,-1,?
2017-03-27 15:03:22.462000,515,6832,-27,1208,-1129,296,-598,960,61,1080,417,1016,-27,6480,264,6664,983,4704,149,216,6935,0,-29,4776,757,5304,2140,4056,2,-1,?
2017-03-27 15:03:22.465000,524,6832,-20,1208,-1132,296,-593,960,59,1080,409,1016,20,6480,274,6664,1043,4704,151,216,6935,0,-35,4776,764,5304,2124,4056,2,-1,?
2017-03-27 15:03:22.472000,526,6832,-29,1208,-1136,296,-598,960,61,1080,401,1016,20,6480,283,6664,1110,4704,152,216,6935,0,-42,4776,771,5304,2103,4056,2,-1,?
2017-03-27 15:03:22.481000,518,6832,-28,1208,-1132,296,-584,960,68,1080,407,1016,1,6480,287,6664,1159,4704,147,216,6950,0,-29,4776,765,5304,2067,4056,2,-1,?
2017-03-27 15:03:22.502000,519,6832,-22,1208,-1127,296,-583,960,59,1080,406,1016,30,6480,288,6664,1234,4704,157,216,7206,0,-33,4776,754,5304,2028,4056,2,-1,?
2017-03-27 15:03:22.502000,508,6832,-37,1208,-1144,296,-613,960,42,1080,385,1016,45,6480,273,6664,1276,4704,168,216,7599,0,-81,4776,734,5304,1987,4056,2,-1,?
2017-03-27 15:03:22.503000,493,6832,-37,1208,-1166,296,-626,960,46,1080,375,1016,25,6480,269,6664,1254,4704,135,216,6958,0,-92,4776,723,5304,1958,4056,2,-1,?
2017-03-27 15:03:22.512000,504,6832,-31,1208,-1157,296,-611,960,64,1080,402,1016,42,6480,294,6664,1268,4704,118,216,6797,0,-55,4776,735,5304,1949,4056,2,-1,?
2017-03-27 15:03:22.518000,515,6832,-34,1208,-1135,296,-600,960,66,1080,414,1016,69,6480,310,6664,1310,4704,197,216,7335,0,-38,4776,757,5304,1942,4056,2,-1,?
2017-03-27 15:03:22.528000,520,6832,-33,1208,-1119,296,-591,960,62,1080,394,1016,61,6480,316,6664,1308,4704,115,216,3683,0,-42,4776,770,5304,1926,4056,2,-1,?
2017-03-27 15:03:22.534000,538,6832,-37,1208,-1105,296,-584,960,67,1080,381,1016,61,6480,330,6664,1292,4704,-315,216,-4874,0,-47,4776,770,5304,1910,4056,2,-1,?
2017-03-27 15:03:22.545000,541,6832,-35,1208,-1107,296,-597,960,60,1080,380,1016,67,6480,332,6664,1289,4704,-637,216,-8192,0,-44,4776,760,5304,1891,4056,2,-1,?
2017-03-27 15:03:22.550000,515,6832,-39,1208,-1127,296,-621,960,48,1080,382,1016,52,6480,314,6664,1259,4704,-350,216,-508,0,-42,4776,751,5304,1856,4056,2,-1,?
2017-03-27 15:03:22.557000,497,6832,-42,1208,-1142,296,-618,960,55,1080,381,1016,29,6480,303,6664,1206,4704,149,216,6947,0,-50,4776,753,5304,1820,4056,2,-1,?
2017-03-27 15:03:22.565000,506,6832,-34,1208,-1135,296,-604,960,62,1080,389,1016,24,6480,324,6664,1184,4704,71,216,2479,0,-69,4776,756,5304,1811,4056,2,-1,?
2017-03-27 15:03:22.572000,512,6832,-39,1208,-1103,296,-604,960,59,1080,404,1016,29,6480,353,6664,1187,4704,-399,216,-5564,0,-73,4776,755,5304,1812,4056,2,-1,?
2017-03-27 15:03:22.580000,512,6832,-35,1208,-1055,296,-607,960,58,1080,398,1016,40,6480,365,6664,1161,4704,-611,216,-8034,0,-49,4776,770,5304,1810,4056,2,-1,?
2017-03-27 15:03:22.588000,503,6832,-36,1208,-1020,296,-605,960,59,1080,374,1016,37,6480,348,6664,1101,4704,-579,216,-7230,0,-34,4776,774,5304,1787,4056,2,-2,?
2017-03-27 15:03:22.596000,494,6832,-43,1208,-1006,296,-615,960,52,1080,364,1016,9,6480,317,6664,1031,4704,-426,216,-3089,0,-48,4776,755,5304,1752,4056,2,-1,?
2017-03-27 15:03:22.604000,502,6832,-38,1208,-971,296,-606,960,41,1080,366,1016,-12,6480,304,6664,947,4704,-39,216,4748,0,-54,4776,751,5304,1732,4056,2,-1,?
2017-03-27 15:03:22.611000,518,6832,-42,1208,-921,296,-583,960,47,1080,357,1016,-1,6480,316,6664,877,4704,254,216,8039,0,-54,4776,763,5304,1725,4056,2,-2,?
2017-03-27 15:03:22.619000,519,6832,-40,1208,-902,296,-602,960,56,1080,354,1016,16,6480,331,6664,869,4704,215,216,7277,0,-36,4776,763,5304,1707,4056,2,-1,?
2017-03-27 15:03:22.627000,505,6832,-39,1208,-899,296,-619,960,46,1080,363,1016,21,6480,330,6664,865,4704,235,216,8069,0,37,4776,753,5304,1679,4056,2,-1,?
2017-03-27 15:03:22.636000,513,6832,-44,1208,-876,296,-602,960,46,1080,376,1016,27,6480,326,6664,820,4704,170,216,4337,0,62,4776,757,5304,1665,4056,2,-1,?
2017-03-27 15:03:22.643000,520,6832,-40,1208,-857,296,-598,960,55,1080,380,1016,27,6480,317,6664,797,4704,-301,216,-4304,0,-29,4776,768,5304,1651,4056,2,-2,?
2017-03-27 15:03:22.651000,494,6832,-43,1208,-855,296,-600,960,44,1080,368,1016,24,6480,316,6664,799,4704,-615,216,-7825,0,-84,4776,760,5304,1620,4056,2,-1,?
2017-03-27 15:03:22.659000,486,6832,-43,1208,-842,296,-604,960,36,1080,359,1016,26,6480,324,6664,782,4704,-561,216,-7546,0,-53,4776,758,5304,1607,4056,2,-1,?
2017-03-27 15:03:22.667000,505,6832,-41,1208,-821,296,-617,960,47,1080,364,1016,16,6480,314,6664,766,4704,-498,216,-6343,0,-51,4776,777,5304,1600,4056,2,-1,?
2017-03-27 15:03:22.674000,504,6832,-45,1208,-805,296,-618,960,53,1080,371,1016,4,6480,300,6664,770,4704,-368,216,-2633,0,-72,4776,788,5304,1577,4056,2,-1,?
2017-03-27 15:03:22.683000,494,6832,-41,1208,-798,296,-602,960,52,1080,375,1016,10,6480,302,6664,783,4704,-192,216,-935,0,-72,4776,784,5304,1558,4056,2,-1,?
2017-03-27 15:03:22.689000,498,6832,-49,1208,-785,296,-596,960,58,1080,381,1016,24,6480,316,6664,821,4704,-160,216,-1110,0,-71,4776,779,5304,1545,4056,2,-1,?
2017-03-27 15:03:22.700000,511,6832,-49,1208,-763,296,-599,960,59,1080,387,1016,31,6480,322,6664,865,4704,4,216,4090,0,-61,4776,792,5304,1528,4056,2,-1,?
2017-03-27 15:03:22.705000,516,6816,-45,1208,-763,296,-608,960,63,1080,392,1016,37,6480,317,6664,870,4704,238,216,7215,0,-57,4776,800,5304,1508,4056,2,-1,?
2017-03-27 15:03:22.713000,499,6816,-54,1184,-774,296,-618,960,63,1080,388,1016,28,6480,308,6664,861,4704,-60,216,-1012,0,-62,4776,786,5304,1494,4056,2,-1,?
2017-03-27 15:03:22.721000,499,6816,-46,1184,-760,296,-605,960,58,1080,380,1016,16,6480,311,6664,877,4704,-545,216,-8192,0,-47,4776,797,5304,1489,5696,2,-1,?
2017-03-27 15:03:22.733000,517,6816,-45,1184,-738,312,-589,960,67,1080,379,1016,22,6480,327,6664,904,4704,-420,216,-3374,0,-40,4776,813,5304,1476,5696,2,-1,?
2017-03-27 15:03:22.736000,523,6816,-47,1184,-740,312,-593,968,68,1080,389,1016,34,6480,328,6664,910,4704,55,216,5023,0,-60,4776,807,5304,1462,5696,2,-1,?
2017-03-27 15:03:22.744000,520,6816,-42,1184,-747,312,-609,968,56,1056,392,1016,29,6480,305,6664,906,4704,240,216,7498,0,-60,4776,802,5304,1452,5696,2,-1,?
2017-03-27 15:03:22.751000,515,6816,-50,1184,-738,312,-619,968,53,1056,390,1008,8,6480,284,6664,921,4704,178,216,6642,0,-30,4776,800,5304,1435,5696,2,-1,?
2017-03-27 15:03:22.762000,519,6816,-49,1184,-727,312,-624,968,59,1056,394,1008,-4,6480,286,6664,953,4704,187,216,7104,0,-60,4776,808,5304,1430,5696,2,-1,?
2017-03-27 15:03:22.768000,527,6816,-47,1184,-718,312,-621,968,62,1056,393,1008,1,6480,299,6664,978,4704,244,216,7582,0,-35,4776,814,5304,1426,5696,2,-1,?
2017-03-27 15:03:22.775000,528,6816,-49,1184,-719,312,-606,968,61,1056,396,1008,9,6480,307,6664,996,4704,236,216,7126,0,287,4776,801,5304,1413,5696,2,-1,?
2017-03-27 15:03:22.783000,532,6816,-45,1184,-720,312,-605,968,59,1056,401,1008,14,6480,315,6664,1002,4704,211,360,6953,0,673,4776,787,5304,1404,5696,2,-1,?
2017-03-27 15:03:22.793000,532,6816,-53,1184,-714,312,-617,968,59,1056,396,1008,21,6480,317,6664,995,4704,209,360,6944,1920,635,4776,787,5304,1391,5696,2,-1,?
2017-03-27 15:03:22.799000,528,6816,-49,1184,-704,312,-610,968,63,1056,399,1008,24,6480,310,6664,992,4704,223,360,7008,1920,253,4792,799,5304,1379,5696,2,-1,?
2017-03-27 15:03:22.807000,534,6816,-41,1184,-692,312,-597,968,66,1056,413,1008,35,6480,319,6664,992,4704,236,360,7150,1920,5,4792,813,5288,1379,5696,2,-1,?
2017-03-27 15:03:22.815000,541,6816,-51,1184,-687,312,-607,968,65,1056,420,1008,57,6480,336,6664,993,4704,228,352,7058,1920,-20,4792,812,5288,1371,5696,2,-1,?
2017-03-27 15:03:22.822000,537,6816,-54,1184,-693,312,-613,968,59,1056,424,1008,61,6480,325,6664,984,4704,205,352,6955,1920,-23,4792,800,5288,1351,5696,2,-1,?
2017-03-27 15:03:22.830000,537,6816,-53,1184,-692,312,-592,968,65,1056,435,1008,55,6480,318,6664,986,4704,220,352,7148,1920,-38,4792,805,5288,1341,5696,2,-1,?
2017-03-27 15:03:22.838000,548,6816,-45,1184,-677,312,-590,968,78,1056,441,1008,61,6480,334,6664,1010,4704,219,352,6329,1920,-24,4792,827,5288,1346,5696,2,-1,?
2017-03-27 15:03:22.846000,548,6816,-47,1184,-676,312,-612,968,75,1056,446,1008,66,6480,331,6664,1017,4704,94,352,3632,1920,-4,4792,821,5288,1331,5696,2,-1,?
2017-03-27 15:03:22.855000,537,6816,-55,1184,-689,312,-615,968,65,1056,432,1008,52,6480,314,6664,1002,4704,-66,352,1426,1920,1,4792,811,5288,1308,5696,2,-1,?
2017-03-27 15:03:22.861000,532,6816,-47,1184,-686,312,-614,968,58,1056,409,1008,29,6480,308,6664,990,4704,-67,352,2417,1920,2,4792,829,5288,1301,5696,2,-1,?
2017-03-27 15:03:22.869000,529,6816,-49,1184,-671,312,-626,968,52,1056,408,1008,29,6480,308,6664,996,4704,27,352,3785,1920,-8,4792,826,5288,1301,5696,2,-1,?
2017-03-27 15:03:22.878000,546,6816,-47,1184,-662,312,-620,968,54,1056,413,1008,40,6480,311,6664,999,4704,31,352,3134,1920,-3,4792,833,5288,1308,5696,2,-1,?
2017-03-27 15:03:22.885000,567,6816,-42,1184,-658,312,-602,968,61,1056,410,1008,14,6480,323,6664,991,4704,19,352,3370,1920,15,4792,885,5288,1304,5696,2,-1,?
2017-03-27 15:03:22.894000,562,6816,-50,1184,-651,312,-605,968,62,1056,411,1008,-17,6480,318,6664,976,4704,52,352,4133,1920,14,4792,920,5288,1286,5696,2,-1,?
2017-03-27 15:03:22.901000,555,6816,-46,1184,-657,312,-622,968,56,1056,409,1008,3,6480,301,6664,963,4704,13,352,2259,1920,2,4792,915,5288,1274,5696,2,-1,?
2017-03-27 15:03:22.909000,559,6816,-48,1184,-658,312,-622,968,60,1056,413,1008,37,6480,311,6664,969,4704,-81,352,-901,1920,-3,4792,913,5288,1267,5696,2,-1,?
2017-03-27 15:03:22.916000,563,6816,-50,1184,-638,312,-607,968,74,1056,432,1008,35,6480,328,6664,982,4704,-112,352,-2003,1920,1,4792,918,5288,1256,5696,2,-1,?
2017-03-27 15:03:22.926000,554,6816,-48,1184,-637,312,-600,968,73,1056,445,1008,17,6480,312,6664,977,4704,-100,352,-673,1920,0,4792,903,5288,1237,5696,2,-1,?
2017-03-27 15:03:22.932000,545,6816,-56,1184,-653,312,-605,968,73,1056,445,1008,13,6480,288,6664,963,4704,-98,352,1023,1920,-21,4792,879,5288,1218,5696,2,-1,?
2017-03-27 15:03:22.941000,540,6816,-55,1184,-656,312,-609,968,79,1056,443,1008,24,6480,288,6664,960,4704,-77,352,2000,1920,-31,4792,852,5288,1208,5696,2,-1,?
2017-03-27 15:03:22.947000,539,6816,-52,1184,-647,312,-611,968,78,1056,446,1008,36,6480,301,6664,964,4704,-26,352,3047,1920,-15,4792,815,5288,1204,5696,2,-1,?
2017-03-27 15:03:22.955000,545,6816,-53,1184,-640,312,-622,968,76,1056,464,1008,33,6480,301,6664,961,4704,-12,352,2563,1920,-14,4792,791,5288,1197,5696,2,-1,?
2017-03-27 15:03:22.963000,541,6816,-52,1184,-644,312,-629,968,72,1056,467,1008,28,6480,293,6664,963,4704,-82,352,-770,1920,-24,4792,786,5288,1191,5696,2,-1,?
2017-03-27 15:03:22.972000,543,6816,-61,1184,-642,312,-619,968,68,1056,453,1008,28,6480,299,6664,976,4704,-130,352,-1791,1920,-7,4792,796,5288,1191,5696,2,-1,?
2017-03-27 15:03:22.979000,561,6816,-52,1184,-630,312,-615,968,74,1056,461,1008,34,6480,305,6664,979,4704,-64,352,1679,1920,6,4792,812,5288,1197,5696,2,-1,?
2017-03-27 15:03:22.987000,568,6816,-48,1184,-636,312,-618,968,78,1056,481,1008,39,6480,301,6664,974,4704,14,352,3932,1920,-7,4792,806,5288,1197,5696,2,-1,?
2017-03-27 15:03:22.994000,578,6816,-53,1184,-650,312,-610,968,70,1056,475,1008,11,6480,301,6664,971,4704,36,352,3506,1920,-8,4792,790,5288,1190,5696,2,-1,?
2017-03-27 15:03:23.002000,616,6816,-46,1184,-640,312,-611,968,67,1056,469,1008,-10,6480,307,6664,983,4704,48,352,3526,1920,11,4792,792,5288,1189,5696,2,-1,?
2017-03-27 15:03:23.010000,635,6816,-49,1184,-622,312,-623,968,72,1056,485,1008,20,6480,316,6664,1011,4704,67,352,3958,1920,28,4792,795,5288,1192,5696,2,-1,?
2017-03-27 15:03:23.018000,624,6816,-50,1184,-622,312,-617,968,71,1056,490,1008,32,6480,317,6664,1006,4704,73,352,4022,1920,34,4792,792,5288,1188,5696,2,-1,?
2017-03-27 15:03:23.026000,617,6816,-49,1184,-621,312,-606,968,71,1056,474,1008,4,6480,301,6664,969,4704,78,352,4258,1920,26,4792,783,5288,1173,5696,2,-1,?
2017-03-27 15:03:23.034000,617,6816,-52,1184,-621,312,-619,968,68,1056,462,1008,11,6480,290,6664,954,4704,106,352,5088,1920,13,4792,767,5288,1161,5696,2,-1,?
2017-03-27 15:03:23.041000,614,6816,-49,1184,-628,312,-617,968,65,1056,463,1008,40,6480,297,6664,965,4704,161,352,6178,1920,6,4792,765,5288,1166,5696,2,-1,?
2017-03-27 15:03:23.049000,611,6816,-58,1184,-623,312,-590,968,70,1056,475,1008,39,6480,296,6664,981,4704,204,352,6743,1920,-1,4792,768,5288,1170,5696,2,-1,?
2017-03-27 15:03:23.057000,612,6816,-55,1184,-619,312,-591,968,65,1056,483,1008,33,6480,279,6664,984,4704,200,352,6488,1920,-1,4792,770,5288,1163,5696,2,-1,?
2017-03-27 15:03:23.065000,614,6816,-48,1184,-618,312,-619,968,60,1056,477,1008,39,6480,281,6664,975,4704,175,352,6020,1920,12,4792,771,5288,1160,5696,2,-1,?
2017-03-27 15:03:23.073000,617,6816,-54,1184,-608,312,-630,968,67,1056,478,1008,37,6480,297,6664,979,4704,184,352,6247,1920,12,4792,770,5288,1158,5696,2,-1,?
2017-03-27 15:03:23.080000,622,6816,-53,1184,-594,312,-612,968,73,1056,490,1008,35,6480,293,6664,991,4704,219,352,6864,1920,5,4792,768,5288,1153,5696,2,-1,?
2017-03-27 15:03:23.088000,610,6816,-55,1184,-590,312,-590,968,70,1056,484,1008,35,6480,290,6664,983,4704,233,352,7032,1920,9,4792,761,5288,1137,5696,2,-1,?
2017-03-27 15:03:23.096000,592,6816,-52,1184,-595,312,-597,968,59,1056,465,1008,27,6480,286,6664,964,4704,218,352,6895,1920,10,4792,752,5288,1120,5696,2,-1,?
2017-03-27 15:03:23.104000,586,6816,-51,1184,-604,312,-623,968,54,1056,464,1008,22,6480,272,6664,958,4704,195,352,6915,1920,-3,4792,738,5288,1108,5696,2,-1,?
2017-03-27 15:03:23.113000,589,6816,-63,1184,-602,312,-629,968,75,1056,478,1008,25,6480,281,6664,971,4704,201,352,6966,1920,-8,4792,737,5288,1106,5696,2,-1,?
2017-03-27 15:03:23.120000,600,6816,-54,1184,-578,312,-606,968,91,1056,485,1008,32,6480,309,6664,993,4704,235,352,6923,1920,17,4792,763,5288,1121,5696,2,-1,?
2017-03-27 15:03:23.128000,610,6816,-51,1184,-562,312,-596,968,78,1056,489,1008,34,6480,313,6664,1009,4704,250,352,6932,1920,29,4792,769,5288,1114,5696,2,-1,?
2017-03-27 15:03:23.135000,615,6816,-57,1184,-577,312,-609,968,72,1056,497,1008,26,6480,291,6664,1004,4704,227,352,6955,1920,11,4792,747,5288,1087,5696,2,-1,?
2017-03-27 15:03:23.144000,633,6816,-53,1184,-590,312,-609,968,83,1056,497,1008,22,6480,286,6664,998,4704,221,352,6933,1920,7,4792,747,5288,1083,5696,2,-1,?
2017-03-27 15:03:23.151000,648,6816,-59,1184,-587,312,-600,968,79,1056,489,1008,23,6480,295,6664,1013,4704,245,352,6932,1920,18,4792,758,5288,1098,5696,2,-1,?
2017-03-27 15:03:23.161000,648,6816,-58,1184,-583,312,-608,968,73,1056,489,1008,22,6480,288,6664,1024,4704,241,352,6942,1920,15,4792,755,5288,1101,5696,2,-1,?
2017-03-27 15:03:23.166000,642,6816,-58,1184,-575,312,-605,968,85,1056,503,1008,23,6480,284,6664,1027,4704,229,352,6935,1920,12,4792,751,5288,1089,5696,2,-1,?
2017-03-27 15:03:23.174000,626,6816,-62,1184,-561,312,-586,968,96,1056,511,1008,32,6480,304,6664,1040,4704,245,352,6935,1920,19,4792,756,5288,1083,5696,2,-1,?
2017-03-27 15:03:23.182000,591,6816,-57,1184,-573,312,-603,968,92,1056,496,1008,32,6480,312,6664,1054,4704,243,352,6939,1920,2,4792,757,5288,1075,5696,2,-1,?
2017-03-27 15:03:23.190000,565,6816,-59,1184,-589,312,-629,968,87,1056,476,1008,26,6480,291,6664,1045,4704,214,352,6937,1920,-18,4792,751,5288,1059,5696,2,-1,?
2017-03-27 15:03:23.198000,573,6816,-53,1184,-580,312,-612,968,85,1056,481,1008,27,6480,283,6664,1031,4704,211,352,6936,1920,-1,4792,761,5288,1055,5696,2,-1,?
2017-03-27 15:03:23.206000,578,6840,-53,1184,-575,312,-597,968,93,1056,503,1008,34,6480,290,6664,1041,4704,223,352,6935,1920,14,4792,763,5288,1049,5696,2,-1,?
2017-03-27 15:03:23.213000,566,6840,-58,1200,-588,312,-603,968,95,1056,506,1008,30,6480,279,6664,1051,4704,211,352,6936,1920,6,4792,745,5288,1037,5696,2,-1,?
2017-03-27 15:03:23.222000,561,6840,-53,1200,-598,312,-610,968,81,1056,498,1008,9,6480,265,6664,1040,4704,195,352,6935,1920,3,4792,745,5288,1025,6000,2,-1,?
2017-03-27 15:03:23.228000,562,6840,-60,1200,-595,312,-610,968,72,1056,499,1008,-2,6480,270,6664,1033,4704,208,352,6935,1920,22,4792,752,5288,1013,6000,2,-1,?
2017-03-27 15:03:23.237000,563,6840,-61,1200,-590,312,-604,960,86,1056,516,1008,19,6480,284,6664,1060,4704,229,352,6936,1920,41,4792,758,5288,1010,6000,2,-1,?
2017-03-27 15:03:23.244000,554,6840,-60,1200,-586,312,-597,960,100,1056,528,1008,38,6480,288,6664,1081,4704,224,352,6935,1920,29,4792,756,5288,1000,6000,2,-1,?
2017-03-27 15:03:23.251000,548,6840,-66,1200,-590,312,-589,960,100,1056,530,1008,36,6480,290,6664,1077,4704,211,352,6936,1920,24,4792,748,5288,986,6000,2,-1,?
2017-03-27 15:03:23.260000,555,6840,-61,1200,-600,312,-586,960,94,1056,523,1008,30,6488,292,6664,1091,4704,222,352,6935,1920,44,4792,755,5288,986,6000,2,-1,?
2017-03-27 15:03:23.268000,557,6840,-62,1200,-597,312,-588,960,95,1056,514,1008,37,6488,284,6672,1123,4704,232,352,6936,1920,42,4792,764,5288,985,6000,2,-1,?
2017-03-27 15:03:23.277000,556,6840,-57,1200,-570,312,-601,960,94,1056,503,1008,21,6488,278,6672,1144,4728,222,352,6936,1920,22,4792,762,5288,976,6000,2,-1,?
2017-03-27 15:03:23.284000,552,6840,-55,1200,-566,312,-614,960,77,1056,487,1008,-35,6488,278,6672,1162,4728,213,376,6935,1920,18,4792,751,5288,965,6000,2,-1,?
2017-03-27 15:03:23.295000,546,6840,-65,1200,-614,312,-612,960,65,1056,471,1008,-39,6488,273,6672,1195,4728,216,376,6936,504,24,4792,740,5288,953,6000,2,-1,?
2017-03-27 15:03:23.299000,553,6840,-58,1200,-648,312,-598,960,76,1056,467,1008,24,6488,277,6672,1225,4728,224,376,6935,504,38,4792,739,5288,958,6000,2,-1,?
2017-03-27 15:03:23.311000,558,6840,-58,1200,-630,312,-590,960,92,1056,475,1008,48,6488,292,6672,1232,4728,227,376,6936,504,50,4792,740,5304,956,6000,2,-1,?
2017-03-27 15:03:23.315000,547,6840,-63,1200,-612,312,-606,960,98,1056,474,1008,31,6488,294,6672,1238,4728,219,368,6935,504,42,4792,741,5304,942,6000,2,-1,?
2017-03-27 15:03:23.324000,539,6840,-59,1200,-607,312,-602,960,97,1056,471,1008,46,6488,292,6672,1251,4728,238,368,6936,504,39,4792,748,5304,941,6000,2,-1,?
2017-03-27 15:03:23.330000,541,6840,-63,1200,-599,312,-587,960,98,1056,473,1008,63,6488,300,6672,1244,4728,275,368,6936,504,59,4776,755,5304,945,6000,2,-1,?
2017-03-27 15:03:23.339000,556,6840,-57,1200,-587,312,-600,960,104,1056,470,1008,52,6488,304,6672,1229,4728,288,368,6935,504,79,4776,768,5304,953,6000,2,-1,?
2017-03-27 15:03:23.345000,574,6840,-56,1200,-562,312,-598,960,107,1056,468,1008,60,6488,315,6672,1243,4728,298,368,6936,504,89,4776,777,5304,969,6000,2,-1,?
2017-03-27 15:03:23.360000,567,6840,-59,1200,-560,312,-593,960,96,1056,470,1008,66,6488,318,6672,1245,4728,302,368,6935,504,89,4776,766,5304,970,6000,2,-1,?
2017-03-27 15:03:23.361000,552,6840,-57,1200,-593,312,-618,960,89,1056,468,1008,49,6488,297,6672,1209,4728,280,368,6936,504,81,4776,749,5304,951,6000,2,-2,?
2017-03-27 15:03:23.371000,564,6840,-64,1200,-601,312,-619,960,93,1056,472,1008,64,6488,297,6672,1186,4728,284,368,6935,504,86,4776,759,5304,946,6000,2,-2,?
2017-03-27 15:03:23.377000,591,6840,-58,1200,-576,312,-597,960,96,1056,482,1008,97,6488,320,6672,1185,4728,315,368,6936,504,112,4776,787,5304,965,6000,2,-2,?
2017-03-27 15:03:23.386000,588,6840,-58,1200,-572,312,-611,960,86,1056,472,1008,69,6488,319,6672,1166,4728,304,368,6936,504,119,4776,773,5304,953,6000,2,-2,?
2017-03-27 15:03:23.394000,565,6840,-69,1200,-596,312,-630,960,78,1056,450,1008,31,6488,295,6672,1133,4728,274,368,6935,504,92,4776,742,5304,911,6000,2,-2,?
2017-03-27 15:03:23.402000,562,6840,-64,1200,-603,312,-608,960,84,1056,439,1008,48,6488,288,6672,1121,4728,275,368,6936,504,72,4776,742,5304,902,6000,2,-2,?
2017-03-27 15:03:23.410000,573,6840,-65,1200,-578,312,-581,960,100,1056,452,1008,69,6488,302,6672,1112,4728,286,368,6935,504,83,4776,753,5304,920,6000,2,-3,?
2017-03-27 15:03:23.418000,585,6840,-63,1200,-563,312,-590,960,108,1056,473,1008,76,6488,324,6672,1098,4728,293,368,6936,504,101,4776,757,5304,926,6000,1,-3,?
2017-03-27 15:03:23.426000,580,6840,-63,1200,-570,312,-617,960,108,1056,484,1008,86,6488,329,6672,1098,4728,291,368,6935,504,98,4776,755,5304,908,6000,1,-3,?
2017-03-27 15:03:23.433000,561,6840,-64,1200,-570,312,-609,960,96,1056,473,1008,70,6488,299,6672,1074,4728,271,368,6936,504,82,4776,744,5304,890,6000,1,-3,?
2017-03-27 15:03:23.441000,560,6840,-57,1200,-564,312,-593,960,73,1056,449,1008,57,6488,274,6672,1031,4728,259,368,6936,504,74,4776,739,5304,892,6000,1,-3,?
2017-03-27 15:03:23.449000,562,6840,-63,1200,-567,312,-615,960,60,1056,442,1008,70,6488,284,6672,1039,4728,273,368,6935,504,84,4776,746,5304,892,6000,1,-3,?
2017-03-27 15:03:23.456000,565,6840,-62,1200,-568,312,-620,960,56,1056,449,1008,66,6488,300,6672,1079,4728,283,368,6936,504,104,4776,762,5304,884,6000,1,-3,?
2017-03-27 15:03:23.465000,565,6840,-61,1200,-571,312,-601,960,62,1056,474,1008,55,6488,296,6672,1089,4728,276,368,6935,504,109,4776,759,5304,872,6000,1,-3,?
2017-03-27 15:03:23.471000,548,6840,-70,1200,-581,312,-619,960,79,1056,504,1008,59,6488,285,6672,1081,4728,262,368,6936,504,108,4776,730,5304,852,6000,0,-3,?
2017-03-27 15:03:23.480000,536,6840,-66,1200,-583,312,-637,960,86,1056,510,1008,57,6488,278,6672,1077,4728,249,368,6935,504,111,4776,718,5304,839,6000,0,-3,?
2017-03-27 15:03:23.488000,546,6840,-63,1200,-572,312,-611,960,88,1056,502,1008,62,6488,282,6672,1053,4728,247,368,6936,504,104,4776,727,5304,844,6000,0,-3,?
2017-03-27 15:03:23.496000,553,6840,-59,1200,-568,312,-596,960,91,1056,494,1008,60,6488,279,6672,1020,4728,244,368,6936,504,95,4776,729,5304,842,6000,0,-3,?
2017-03-27 15:03:23.503000,563,6840,-56,1200,-573,312,-598,960,91,1056,467,1008,34,6488,274,6672,999,4728,236,368,6935,504,98,4776,736,5304,837,6000,0,-4,?
2017-03-27 15:03:23.512000,596,6840,-60,1200,-551,312,-584,960,92,1056,447,1008,36,6488,304,6672,1010,4728,249,368,6936,504,121,4776,759,5304,856,6000,0,-4,?
2017-03-27 15:03:23.519000,597,6840,-53,1200,-515,312,-585,960,90,1056,453,1008,50,6488,316,6672,1044,4728,269,368,6935,504,132,4776,762,5304,853,6000,0,-5,?
2017-03-27 15:03:23.528000,555,6840,-55,1200,-495,312,-598,960,76,1056,451,1008,33,6488,275,6672,1074,4728,260,368,6936,504,118,4776,731,5304,805,6000,0,-5,?
2017-03-27 15:03:23.535000,551,6840,-53,1200,-476,312,-588,960,64,1056,436,1008,20,6488,242,6672,1058,4728,239,368,6935,504,114,4776,716,5304,801,6000,0,-6,?
2017-03-27 15:03:23.545000,578,6840,-50,1200,-452,312,-576,960,56,1056,434,1008,24,6488,242,6672,1011,4728,250,368,6936,504,128,4776,729,5304,826,6000,0,-6,?
2017-03-27 15:03:23.550000,565,6840,-64,1200,-444,312,-579,960,49,1056,443,1008,6,6488,234,6672,1012,4728,275,368,6936,504,140,4776,731,5304,818,6000,0,-5,?
2017-03-27 15:03:23.564000,549,6840,-60,1200,-446,312,-583,960,53,1056,469,1008,-9,6488,219,6672,1063,4728,277,368,6935,504,134,4776,730,5304,815,6000,0,-5,?
2017-03-27 15:03:23.565000,561,6840,-54,1200,-441,312,-589,960,65,1056,510,1008,4,6488,210,6672,1129,4728,263,368,6936,504,119,4776,729,5304,820,6000,0,-4,?
2017-03-27 15:03:23.574000,555,6840,-57,1200,-446,312,-605,960,62,1056,535,1008,5,6488,190,6672,1188,4728,245,368,6935,504,102,4776,720,5304,810,6000,1,-4,?
2017-03-27 15:03:23.582000,549,6840,-57,1200,-452,312,-602,960,44,1056,528,1008,-9,6488,180,6672,1226,4728,235,368,6936,504,97,4776,718,5304,804,6000,1,-4,?
2017-03-27 15:03:23.589000,569,6840,-62,1200,-428,312,-583,960,46,1056,521,1008,2,6488,194,6672,1260,4728,242,368,6935,504,102,4776,722,5304,812,6000,1,-4,?
2017-03-27 15:03:23.598000,563,6840,-54,1200,-397,312,-592,960,56,1056,520,1008,31,6488,204,6672,1268,4728,248,368,6936,504,109,4776,720,5304,813,6000,1,-4,?
2017-03-27 15:03:23.604000,558,6840,-50,1200,-386,312,-605,960,48,1056,499,1008,25,6488,205,6672,1216,4728,250,368,6936,504,114,4776,702,5304,802,6000,1,-4,?
2017-03-27 15:03:23.613000,629,6840,-56,1200,-378,312,-587,960,43,1056,468,1008,-1,6488,223,6672,1134,4728,257,368,6935,504,123,4776,695,5304,805,6000,1,-4,?
2017-03-27 15:03:23.620000,670,6840,-53,1200,-366,312,-571,960,59,1056,459,1008,-9,6488,238,6672,1091,4728,270,368,6936,504,134,4776,704,5304,814,6000,1,-3,?
2017-03-27 15:03:23.628000,609,6840,-58,1200,-367,312,-584,960,67,1056,472,1008,1,6488,230,6672,1105,4728,282,368,6935,504,130,4776,689,5304,801,6000,1,-3,?
2017-03-27 15:03:23.636000,572,6840,-57,1200,-384,312,-601,960,60,1056,502,1008,23,6488,214,6672,1123,4728,274,368,6936,504,117,4776,691,5304,781,6000,1,-3,?
2017-03-27 15:03:23.644000,587,6840,-57,1200,-392,312,-602,960,64,1056,539,1008,2,6488,210,6672,1127,4728,268,368,6935,504,104,4776,742,5304,783,6000,1,-3,?
2017-03-27 15:03:23.651000,575,6840,-63,1200,-380,312,-589,960,61,1056,543,1008,-50,6488,220,6672,1157,4728,294,368,6936,504,105,4776,781,5304,798,6000,1,-3,?
2017-03-27 15:03:23.660000,557,6840,-58,1200,-372,312,-585,960,55,1056,533,1008,-41,6488,221,6672,1160,4728,297,368,6936,504,114,4776,768,5304,790,6000,2,-3,?
2017-03-27 15:03:23.667000,556,6840,-63,1200,-381,312,-590,960,65,1056,547,1008,6,6488,215,6672,1085,4728,257,368,6935,504,86,4776,744,5304,767,6000,2,-2,?
2017-03-27 15:03:23.677000,558,6840,-65,1200,-384,312,-581,960,69,1056,539,1008,6,6488,228,6672,1056,4728,249,368,6936,504,83,4776,751,5304,771,6000,2,-2,?
2017-03-27 15:03:23.683000,566,6840,-61,1200,-380,312,-577,960,61,1056,502,1008,-5,6488,237,6672,1082,4728,268,368,6935,504,165,4776,746,5304,779,6000,2,-2,?
2017-03-27 15:03:23.693000,565,6840,-63,1200,-377,312,-587,960,65,1056,507,1008,10,6488,220,6672,1041,4728,271,368,6936,504,199,4776,709,5304,767,6000,2,-2,?
2017-03-27 15:03:23.698000,562,6840,-52,1200,-375,312,-588,960,67,1056,528,1008,23,6488,227,6672,1026,4728,273,368,6935,504,130,4776,687,5304,773,6000,2,-2,?
2017-03-27 15:03:23.710000,570,6840,-56,1200,-370,312,-580,960,48,1056,517,1008,36,6488,265,6672,1087,4728,287,368,6936,504,99,4776,687,5304,784,6000,2,-2,?
2017-03-27 15:03:23.714000,568,6832,-61,1200,-373,312,-595,960,42,1056,518,1008,38,6488,267,6672,1086,4728,288,368,6936,504,123,4776,680,5304,775,6000,2,-2,?
2017-03-27 15:03:23.723000,562,6832,-55,1192,-383,312,-606,960,47,1056,533,1008,27,6488,246,6672,1030,4728,274,368,6935,504,101,4776,664,5304,761,6000,2,-2,?
2017-03-27 15:03:23.731000,565,6832,-61,1192,-375,312,-580,960,39,1056,511,1008,28,6488,242,6672,1009,4728,270,368,6936,504,63,4776,652,5304,754,6232,2,-2,?
2017-03-27 15:03:23.737000,572,6832,-59,1192,-361,288,-577,960,27,1056,488,1008,23,6488,231,6672,996,4728,272,368,6935,504,69,4776,661,5304,764,6232,2,-2,?
2017-03-27 15:03:23.746000,562,6832,-63,1192,-384,288,-618,984,23,1056,503,1008,7,6488,224,6672,983,4728,269,368,6936,504,92,4776,674,5304,755,6232,2,-2,?
2017-03-27 15:03:23.761000,570,6832,-64,1192,-422,288,-635,984,18,1056,512,1008,2,6488,229,6672,980,4728,265,368,6935,504,61,4776,665,5304,729,6232,2,-2,?
2017-03-27 15:03:23.762000,594,6832,-55,1192,-413,288,-611,984,2,1056,495,1016,-11,6488,204,6672,941,4728,253,368,6936,504,89,4776,648,5304,725,6232,2,-1,?
2017-03-27 15:03:23.771000,597,6832,-59,1192,-368,288,-600,984,9,1056,498,1016,-26,6480,179,6672,918,4728,246,368,6936,504,335,4776,650,5304,733,6232,2,-1,?
2017-03-27 15:03:23.777000,594,6832,-56,1192,-344,288,-599,984,27,1056,527,1016,-8,6480,213,6680,958,4728,272,368,6935,504,578,4776,674,5304,739,6232,2,-1,?
2017-03-27 15:03:23.785000,585,6832,-58,1192,-360,288,-607,984,20,1056,548,1016,17,6480,243,6680,979,4704,289,368,6936,504,568,4776,675,5304,727,6232,3,-1,?
2017-03-27 15:03:23.793000,563,6832,-59,1192,-383,288,-633,984,11,1056,542,1016,-4,6480,203,6680,931,4704,252,368,6935,504,484,4776,647,5304,704,6232,2,-1,?
2017-03-27 15:03:23.801000,555,6832,-51,1192,-374,288,-632,984,17,1056,529,1016,-34,6480,175,6680,911,4704,214,368,6936,8,490,4776,635,5304,701,6232,3,-2,?
2017-03-27 15:03:23.809000,560,6832,-56,1192,-361,288,-615,984,15,1056,541,1016,-25,6480,205,6680,959,4704,220,368,6935,8,482,4776,634,5304,713,6232,3,-2,?
2017-03-27 15:03:23.818000,556,6832,-55,1192,-382,288,-621,984,8,1056,559,1016,-6,6480,216,6680,974,4704,216,368,6936,8,446,4776,632,5304,698,6232,3,-2,?
2017-03-27 15:03:23.823000,554,6832,-55,1192,-394,288,-608,984,24,1056,561,1016,2,6480,207,6680,956,4704,209,360,6936,8,455,4776,640,5304,677,6232,3,-2,?
2017-03-27 15:03:23.831000,569,6832,-62,1192,-364,288,-583,984,36,1056,565,1016,4,6480,225,6680,964,4704,244,360,6935,8,475,4776,661,5304,691,6232,3,-2,?
2017-03-27 15:03:23.838000,575,6832,-59,1192,-359,288,-611,984,32,1056,569,1016,7,6480,241,6680,978,4704,249,360,6936,8,457,4776,668,5304,693,6232,3,-2,?
2017-03-27 15:03:23.847000,558,6832,-65,1192,-410,288,-645,984,32,1056,570,1016,5,6480,222,6680,958,4704,207,360,6935,8,426,4776,650,5304,652,6232,3,-2,?
2017-03-27 15:03:23.856000,550,6832,-67,1192,-447,288,-640,984,25,1056,593,1016,-1,6480,192,6680,913,4704,190,360,6936,8,424,4776,644,5304,632,6232,3,-2,?
2017-03-27 15:03:23.863000,553,6832,-62,1192,-438,288,-626,984,27,1056,626,1016,-5,6480,195,6680,909,4704,200,360,6935,8,418,4776,642,5304,644,6232,3,-2,?
2017-03-27 15:03:23.871000,544,6832,-61,1192,-434,288,-621,984,36,1056,623,1016,-8,6480,226,6680,955,4704,198,360,6936,8,394,4776,622,5304,650,6232,3,-2,?
2017-03-27 15:03:23.879000,525,6832,-57,1192,-447,288,-636,984,15,1056,587,1016,-9,6480,231,6680,986,4704,188,360,6936,8,376,4776,607,5304,644,6232,3,-2,?
2017-03-27 15:03:23.887000,506,6832,-65,1192,-454,288,-648,984,-13,1056,558,1016,-12,6480,198,6680,962,4704,190,360,6935,8,368,4776,607,5304,638,6232,3,-2,?
2017-03-27 15:03:23.898000,523,6832,-60,1192,-444,288,-627,984,4,1056,560,1016,-10,6480,196,6680,927,4704,220,360,6936,8,397,4776,628,5304,658,6232,3,-2,?
2017-03-27 15:03:23.903000,556,6832,-53,1192,-421,288,-604,984,41,1056,568,1016,1,6480,240,6680,926,4704,248,360,6935,8,418,4776,645,5304,682,6232,3,-2,?
2017-03-27 15:03:23.910000,538,6832,-67,1192,-409,288,-619,984,40,1056,539,1016,6,6480,258,6680,957,4704,224,360,6936,8,378,4776,621,5304,658,6232,3,-2,?
2017-03-27 15:03:23.918000,507,6832,-67,1192,-422,288,-640,984,22,1056,516,1016,-6,6480,235,6680,985,4704,196,360,6935,8,346,4776,601,5304,616,6232,3,-2,?
2017-03-27 15:03:23.927000,525,6832,-63,1192,-419,288,-621,984,29,1056,556,1016,3,6480,231,6680,985,4704,224,360,6936,8,381,4776,622,5304,624,6232,3,-2,?
2017-03-27 15:03:23.933000,551,6832,-60,1192,-386,288,-595,984,38,1056,584,1016,27,6480,257,6680,966,4704,237,360,6936,8,398,4776,639,5304,661,6232,3,-2,?
2017-03-27 15:03:23.943000,540,6832,-58,1192,-370,288,-611,984,24,1056,555,1016,21,6480,274,6680,943,4704,205,360,6935,8,363,4776,616,5304,656,6232,3,-2,?
2017-03-27 15:03:23.948000,522,6832,-67,1192,-379,288,-637,984,17,1056,541,1016,-1,6480,209,6680,943,4704,197,360,6936,8,354,4776,594,5304,630,6232,3,-1,?
2017-03-27 15:03:23.956000,531,6832,-64,1192,-383,288,-619,984,28,1056,562,1016,1,6480,123,6680,935,4704,210,360,6935,8,362,4776,601,5304,633,6232,3,-2,?
2017-03-27 15:03:23.965000,545,6832,-64,1192,-407,288,-601,984,38,1056,573,1016,9,6480,165,6680,920,4704,202,360,6936,8,355,4776,598,5304,637,6232,3,-2,?
2017-03-27 15:03:23.972000,543,6832,-64,1192,-474,288,-623,984,33,1056,562,1016,1,6480,268,6680,957,4704,182,360,6935,8,346,4776,577,5304,620,6232,3,-2,?
2017-03-27 15:03:23.980000,534,6832,-59,1192,-525,288,-635,984,16,1056,558,1016,-4,6480,278,6680,1009,4704,176,360,6936,8,289,4776,563,5304,607,6232,3,-2,?
2017-03-27 15:03:23.992000,526,6832,-65,1192,-514,288,-628,984,8,1056,567,1016,0,6480,230,6680,1029,4704,178,360,6936,8,361,4776,559,5304,609,6232,3,-1,?
2017-03-27 15:03:23.996000,529,6832,-63,1192,-472,288,-616,984,21,1056,558,1016,-3,6480,213,6680,1027,4704,188,360,6935,8,710,4776,566,5304,620,6232,3,-1,?
2017-03-27 15:03:24.003000,547,6832,-57,1192,-437,288,-584,984,38,1056,546,1016,-3,6480,233,6680,1034,4704,215,360,6936,8,996,4776,583,5304,638,6232,3,-1,?
2017-03-27 15:03:24.012000,558,6832,-59,1192,-428,288,-582,984,35,1056,560,1016,4,6480,257,6680,1049,4704,221,360,6935,8,954,4776,593,5304,642,6232,3,-1,?
2017-03-27 15:03:24.019000,539,6832,-60,1192,-447,288,-625,984,21,1056,566,1016,-6,6480,241,6680,1021,4704,191,360,6936,8,801,4776,574,5304,622,6232,3,-1,?
2017-03-27 15:03:24.028000,528,6832,-60,1192,-443,288,-620,984,33,1056,559,1016,-21,6480,212,6680,998,4704,181,360,6935,8,750,4776,553,5304,617,6232,3,-1,?
2017-03-27 15:03:24.034000,551,6832,-51,1192,-409,288,-577,984,58,1056,573,1016,-2,6480,224,6680,1059,4704,203,360,6936,8,708,4776,582,5304,639,6232,3,-1,?
2017-03-27 15:03:24.044000,557,6832,-56,1192,-409,288,-586,984,52,1056,582,1016,11,6480,226,6680,1102,4704,208,360,6936,8,576,4776,613,5304,632,6232,3,-1,?
2017-03-27 15:03:24.050000,538,6832,-66,1192,-441,288,-621,984,30,1056,566,1016,-2,6480,220,6680,1058,4704,199,360,6935,8,432,4776,593,5304,604,6232,3,-1,?
2017-03-27 15:03:24.060000,527,6832,-59,1192,-452,288,-629,984,16,1056,549,1016,-1,6480,203,6680,1029,4704,192,360,6936,8,386,4776,571,5304,586,6232,3,-1,?
2017-03-27 15:03:24.066000,522,6832,-61,1192,-441,288,-623,984,9,1056,548,1016,-15,6480,160,6680,1004,4704,172,360,6935,8,400,4776,566,5304,575,6232,3,-1,?
2017-03-27 15:03:24.075000,529,6832,-56,1192,-443,288,-610,984,16,1056,573,1016,-58,6480,163,6680,964,4704,162,360,6936,8,381,4776,560,5304,582,6232,2,-1,?
2017-03-27 15:03:24.081000,535,6832,-54,1192,-452,288,-596,984,31,1056,593,1016,-60,6480,210,6680,975,4704,179,360,6935,8,367,4776,550,5304,586,6232,2,-1,?
2017-03-27 15:03:24.096000,533,6832,-65,1192,-439,288,-592,984,46,1056,580,1016,-21,6480,218,6680,973,4704,185,360,6936,8,371,4776,553,5304,582,6232,2,-1,?
2017-03-27 15:03:24.099000,536,6832,-59,1192,-424,288,-604,984,61,1056,564,1016,-6,6480,206,6680,942,4704,175,360,6936,8,365,4776,564,5304,586,6232,2,-1,?
2017-03-27 15:03:24.109000,534,6832,-62,1192,-438,288,-621,984,53,1056,572,1016,-5,6480,209,6680,966,4704,173,360,6935,8,362,4776,555,5304,577,6232,2,-1,?
2017-03-27 15:03:24.113000,528,6832,-64,1192,-439,288,-609,984,29,1056,577,1016,1,6480,187,6680,992,4704,181,360,6936,8,378,4776,554,5304,574,6232,2,-1,?
2017-03-27 15:03:24.124000,524,6832,-60,1192,-417,288,-600,984,31,1056,558,1016,-16,6480,169,6680,967,4704,176,360,6935,8,385,4776,564,5304,579,6232,2,-1,?
2017-03-27 15:03:24.137000,519,6832,-68,1192,-432,288,-620,984,35,1056,545,1016,-41,6480,183,6680,940,4704,166,360,6936,8,366,4776,550,5304,553,6232,2,-1,?
2017-03-27 15:03:24.138000,525,6832,-65,1192,-452,288,-620,984,29,1056,550,1016,-37,6480,180,6680,940,4704,171,360,6935,8,360,4776,539,5304,540,6232,2,-1,?
2017-03-27 15:03:24.147000,526,6832,-61,1192,-427,288,-600,984,32,1056,551,1016,-33,6480,157,6680,951,4704,173,360,6936,8,348,4776,541,5304,555,6232,2,-1,?
2017-03-27 15:03:24.161000,512,6832,-64,1192,-410,288,-606,984,35,1056,531,1016,-49,6480,159,6680,952,4704,164,360,6936,8,327,4776,538,5304,545,6232,2,-1,?
2017-03-27 15:03:24.161000,509,6832,-64,1192,-421,288,-622,984,30,1056,509,1016,-60,6480,193,6680,947,4704,164,360,6935,8,327,4776,544,5304,540,6232,2,-1,?
2017-03-27 15:03:24.167000,520,6832,-66,1192,-408,288,-608,984,37,1056,500,1016,-56,6480,201,6680,953,4704,175,360,6936,8,225,4776,559,5304,560,6232,2,-1,?
2017-03-27 15:03:24.181000,522,6832,-62,1192,-405,288,-597,984,39,1056,500,1016,-48,6480,165,6680,960,4704,171,360,6935,8,18,4776,563,5304,555,6232,2,-1,?
2017-03-27 15:03:24.183000,516,6832,-64,1192,-428,288,-613,984,34,1056,507,1016,-33,6480,168,6680,947,4704,165,360,6936,8,-67,4776,560,5304,534,6232,2,-1,?
2017-03-27 15:03:24.194000,514,6832,-64,1192,-428,288,-623,984,44,1056,510,1016,-26,6480,201,6680,940,4704,171,360,6935,8,-24,4776,561,5304,549,6232,2,-1,?
2017-03-27 15:03:24.199000,515,6832,-57,1192,-407,288,-607,984,44,1056,502,1016,-45,6480,183,6680,941,4704,163,360,6936,8,-33,4776,569,5304,557,6232,2,-1,?
2017-03-27 15:03:24.206000,527,6832,-66,1192,-404,288,-585,984,42,1056,495,1016,-56,6480,174,6680,947,4704,164,360,6936,8,-54,4776,584,5304,546,6232,2,-1,?
2017-03-27 15:03:24.214000,538,6824,-67,1192,-415,288,-591,984,61,1056,505,1016,-36,6480,211,6680,961,4704,184,360,6935,8,-30,4776,593,5304,553,6232,2,-1,?
2017-03-27 15:03:24.222000,527,6824,-62,1200,-409,288,-599,984,66,1056,506,1016,-8,6480,236,6680,974,4704,189,360,6936,8,-22,4776,592,5304,556,6232,2,-1,?
2017-03-27 15:03:24.231000,516,6824,-59,1200,-400,288,-581,984,50,1056,480,1016,-4,6480,234,6680,984,4704,169,360,6935,8,-30,4776,592,5304,546,6304,2,-1,?
2017-03-27 15:03:24.238000,527,6824,-56,1200,-403,296,-575,984,53,1056,469,1016,-22,6480,226,6680,985,4704,169,360,6936,8,-33,4776,594,5304,549,6304,2,-1,?
2017-03-27 15:03:24.246000,524,6824,-67,1200,-413,296,-594,960,66,1056,476,1016,-36,6480,217,6680,973,4704,184,360,6935,8,-31,4776,602,5304,549,6304,2,-1,?
2017-03-27 15:03:24.253000,508,6824,-65,1200,-419,296,-596,960,62,1064,477,1016,-35,6480,197,6680,963,4704,178,360,6936,8,-31,4776,643,5304,543,6304,2,-1,?
2017-03-27 15:03:24.261000,506,6824,-56,1200,-418,296,-578,960,54,1064,466,1008,-28,6480,182,6680,978,4704,180,360,6936,8,-34,4776,686,5304,544,6304,2,-1,?
2017-03-27 15:03:24.269000,506,6824,-61,1200,-419,296,-583,960,46,1064,457,1008,-35,6472,195,6680,984,4704,188,360,6935,8,-31,4776,678,5304,535,6304,2,-1,?
2017-03-27 15:03:24.277000,513,6824,-59,1200,-417,296,-590,960,49,1064,461,1008,-42,6472,226,6632,971,4704,184,360,6936,8,-31,4776,663,5304,532,6304,2,-1,?
2017-03-27 15:03:24.285000,530,6824,-64,1200,-406,296,-578,960,65,1064,475,1008,-33,6472,238,6632,975,4728,188,360,6935,8,-37,4776,667,5304,548,6304,2,-1,?
2017-03-27 15:03:24.293000,528,6824,-66,1200,-408,296,-576,960,61,1064,474,1008,-25,6472,225,6632,993,4728,190,368,6936,8,-35,4776,637,5304,550,6304,2,-1,?
2017-03-27 15:03:24.300000,505,6824,-58,1200,-419,296,-581,960,47,1064,467,1008,-32,6472,217,6632,1010,4728,182,368,6935,24,-32,4776,572,5304,530,6304,2,-1,?
2017-03-27 15:03:24.314000,503,6824,-63,1200,-419,296,-576,960,56,1064,469,1008,-36,6472,221,6632,1009,4728,184,368,6936,24,-32,4712,542,5304,524,6304,2,-1,?
2017-03-27 15:03:24.317000,523,6824,-61,1200,-427,296,-585,960,62,1064,470,1008,-27,6472,224,6632,991,4728,188,368,6936,24,-27,4712,556,5296,534,6304,2,-1,?
2017-03-27 15:03:24.325000,519,6824,-62,1200,-462,296,-596,960,58,1064,471,1008,-31,6472,217,6632,986,4728,180,376,6935,24,-41,4712,546,5296,526,6304,2,-1,?
2017-03-27 15:03:24.333000,512,6824,-65,1200,-474,296,-587,960,68,1064,472,1008,-31,6472,231,6632,987,4728,189,376,6936,0,-52,4712,530,5296,524,6304,2,-1,?
2017-03-27 15:03:24.339000,523,6824,-64,1200,-458,296,-570,960,82,1064,472,1008,-6,6472,257,6632,954,4728,212,376,6935,0,-32,4704,552,5296,543,6304,2,-1,?
2017-03-27 15:03:24.352000,520,6824,-68,1200,-462,296,-562,960,75,1064,477,1008,4,6472,255,6632,925,4728,202,376,6936,0,-26,4704,562,5296,539,6304,2,-1,?
2017-03-27 15:03:24.355000,515,6824,-62,1200,-482,296,-585,960,59,1064,481,1008,-16,6472,235,6632,916,4728,174,376,6935,0,-42,4704,543,5296,508,6304,2,-1,?
2017-03-27 15:03:24.365000,537,6824,-64,1200,-478,296,-602,960,57,1064,468,1008,-28,6472,211,6632,893,4728,180,376,6936,0,-44,4704,534,5296,486,6304,2,-1,?
2017-03-27 15:03:24.377000,560,6824,-66,1200,-449,296,-582,960,61,1064,458,1008,-23,6472,190,6632,885,4728,201,376,6936,0,-45,4704,555,5296,504,6304,2,-1,?
2017-03-27 15:03:24.379000,562,6824,-60,1200,-442,296,-570,960,58,1064,468,1008,-25,6472,184,6632,888,4728,184,376,6935,0,-62,4704,566,5296,517,6304,2,-1,?
2017-03-27 15:03:24.387000,561,6824,-68,1200,-461,296,-580,960,63,1064,479,1008,-31,6472,188,6632,867,4728,165,376,6936,0,-75,4704,550,5296,500,6304,2,-1,?
2017-03-27 15:03:24.401000,559,6824,-65,1200,-471,296,-574,960,70,1064,470,1008,-30,6472,200,6632,853,4728,189,376,6935,0,-75,4704,551,5296,501,6304,2,-1,?
2017-03-27 15:03:24.402000,545,6824,-62,1200,-471,296,-567,960,67,1064,466,1008,-30,6472,213,6632,866,4728,202,376,6936,0,-78,4704,562,5296,504,6304,2,-1,?
2017-03-27 15:03:24.412000,539,6824,-67,1200,-485,296,-591,960,70,1064,477,1008,-34,6472,195,6632,844,4728,180,376,6935,0,-86,4704,556,5296,489,6304,2,-1,?
2017-03-27 15:03:24.418000,545,6824,-67,1200,-510,296,-600,960,80,1064,482,1008,-43,6472,167,6632,813,4728,164,376,6936,0,-94,4704,549,5296,485,6304,2,-1,?
2017-03-27 15:03:24.428000,540,6824,-72,1200,-532,296,-595,960,72,1064,476,1008,-48,6472,168,6632,836,4728,166,376,6936,0,-81,4704,545,5296,482,6304,2,-1,?
2017-03-27 15:03:24.433000,537,6824,-63,1200,-545,296,-601,960,60,1064,471,1008,-38,6472,171,6632,855,4728,166,376,6935,0,-78,4704,544,5296,473,6304,2,-1,?
2017-03-27 15:03:24.442000,550,6824,-57,1200,-531,296,-584,960,65,1064,471,1008,-34,6472,180,6632,843,4728,176,376,6936,0,-92,4704,555,5296,485,6304,2,-1,?
2017-03-27 15:03:24.449000,552,6824,-68,1200,-521,296,-574,960,73,1064,471,1008,-47,6472,216,6632,839,4728,186,376,6935,0,-17,4704,563,5296,501,6304,2,-1,?
2017-03-27 15:03:24.457000,538,6824,-66,1200,-546,296,-604,960,80,1064,481,1008,-46,6472,247,6632,848,4728,182,376,6936,0,63,4704,565,5296,487,6304,2,-1,?
2017-03-27 15:03:24.465000,533,6824,-67,1200,-574,296,-608,960,92,1064,500,1008,-28,6472,254,6632,860,4728,181,376,6935,0,-13,4704,567,5296,474,6304,2,-1,?
2017-03-27 15:03:24.473000,545,6824,-66,1200,-574,296,-578,960,95,1064,510,1008,-25,6472,244,6632,868,4728,193,376,6936,0,-106,4704,573,5296,491,6304,2,-1,?
2017-03-27 15:03:24.480000,563,6824,-62,1200,-564,296,-586,960,81,1064,496,1008,-30,6472,228,6632,856,4728,213,376,6936,0,-76,4704,582,5296,505,6304,2,-1,?
2017-03-27 15:03:24.489000,571,6824,-67,1200,-567,296,-605,960,76,1064,489,1008,-25,6472,229,6632,846,4728,222,376,6935,0,-53,4704,590,5296,504,6304,1,-1,?
2017-03-27 15:03:24.496000,570,6824,-62,1200,-571,296,-583,960,87,1064,502,1008,-23,6472,251,6632,893,4728,219,376,6936,0,-84,4704,594,5296,508,6304,1,-1,?
2017-03-27 15:03:24.505000,573,6824,-64,1200,-562,296,-575,960,82,1064,497,1008,-33,6472,268,6632,945,4728,227,376,6935,0,-72,4704,595,5296,510,6304,1,-1,?
2017-03-27 15:03:24.511000,575,6824,-67,1200,-566,296,-585,960,70,1064,488,1008,-43,6472,268,6632,938,4728,230,376,6936,0,-63,4704,594,5296,504,6304,1,-1,?
2017-03-27 15:03:24.519000,572,6824,-60,1200,-573,296,-577,960,83,1064,492,1008,-27,6472,285,6632,913,4728,220,376,6935,0,-92,4704,594,5296,504,6304,1,-1,?
2017-03-27 15:03:24.528000,567,6824,-62,1200,-556,296,-574,960,105,1064,495,1008,6,6472,311,6632,926,4728,234,376,6936,0,-99,4704,600,5296,509,6304,1,-1,?
2017-03-27 15:03:24.535000,561,6824,-61,1200,-561,296,-599,960,92,1064,486,1008,5,6472,277,6632,930,4728,235,376,6936,0,-81,4704,603,5296,496,6304,1,-2,?
2017-03-27 15:03:24.544000,557,6824,-63,1200,-591,296,-597,960,68,1064,482,1008,-15,6472,230,6632,918,4728,208,376,6935,0,-85,4704,588,5296,480,6304,0,-2,?
2017-03-27 15:03:24.551000,566,6824,-62,1200,-578,296,-575,960,73,1064,479,1008,2,6472,268,6632,938,4728,212,376,6936,0,-115,4704,586,5296,493,6304,0,-2,?
2017-03-27 15:03:24.559000,562,6824,-64,1200,-572,296,-593,960,77,1064,474,1008,25,6472,312,6632,950,4728,224,376,6935,0,-50,4704,592,5296,494,6304,-1,-2,?
2017-03-27 15:03:24.568000,538,6824,-72,1200,-634,296,-604,960,72,1064,479,1008,8,6472,288,6632,940,4728,214,376,6936,0,75,4704,582,5296,474,6304,-1,-2,?
2017-03-27 15:03:24.576000,554,6824,-64,1200,-709,296,-588,960,72,1064,477,1008,12,6472,293,6632,966,4728,228,376,6935,0,60,4704,592,5296,494,6304,-2,-2,?
2017-03-27 15:03:24.582000,581,6824,-64,1200,-764,296,-582,960,74,1064,470,1008,37,6472,324,6632,983,4728,249,376,6936,0,-55,4704,604,5296,521,6304,-3,-2,?
2017-03-27 15:03:24.594000,570,6824,-67,1200,-827,296,-581,960,68,1064,472,1008,9,6472,265,6632,950,4728,220,376,6936,0,-93,4704,585,5296,501,6304,-4,-2,?
2017-03-27 15:03:24.597000,561,6824,-65,1200,-898,296,-579,960,60,1064,474,1008,-39,6472,163,6632,933,4728,197,376,6935,0,-79,4704,569,5296,482,6304,-5,-3,?
2017-03-27 15:03:24.606000,570,6824,-71,1200,-959,296,-588,960,64,1064,480,1008,-49,6472,152,6632,949,4728,214,376,6936,0,-93,4704,585,5296,498,6304,-6,-3,?
2017-03-27 15:03:24.618000,567,6824,-66,1200,-1000,296,-588,960,64,1064,477,1008,-48,6472,201,6632,956,4728,222,376,6935,0,-88,4704,613,5296,505,6304,-7,-3,?
2017-03-27 15:03:24.621000,548,6824,-65,1200,-1028,296,-572,960,55,1064,456,1008,-66,6472,172,6632,934,4728,189,376,6936,0,-96,4704,608,5296,483,6304,-8,-3,?
2017-03-27 15:03:24.628000,533,6824,-73,1200,-1061,296,-566,960,40,1064,443,1008,-89,6472,109,6632,913,4728,157,376,6935,0,-138,4704,589,5296,470,6304,-10,-4,?
2017-03-27 15:03:24.636000,526,6824,-72,1200,-1087,296,-584,960,31,1064,456,1008,-95,6472,140,6632,948,4728,179,376,6936,0,-147,4704,601,5296,478,6304,-11,-4,?
2017-03-27 15:03:24.643000,520,6824,-68,1200,-1094,296,-596,960,38,1064,466,1008,-87,6472,190,6632,1014,4728,196,376,6936,0,-124,4704,612,5296,480,6304,-12,-4,?
2017-03-27 15:03:24.652000,522,6824,-65,1200,-1108,296,-585,960,26,1064,444,1008,-85,6472,163,6632,1043,4728,149,376,6935,0,-151,4704,606,5296,469,6304,-13,-4,?
2017-03-27 15:03:24.660000,518,6824,-72,1200,-1135,296,-573,960,-3,1064,427,1008,-90,6472,138,6632,1071,4728,130,376,6936,0,-184,4704,606,5296,468,6304,-15,-4,?
2017-03-27 15:03:24.668000,510,6824,-70,1200,-1156,296,-579,960,5,1064,465,1008,-80,6472,159,6632,1173,4728,199,376,6935,0,43,4704,616,5296,492,6304,-16,-4,?
2017-03-27 15:03:24.677000,521,6824,-67,1200,-1169,296,-571,960,54,1064,530,1008,-48,6472,181,6632,1303,4728,283,376,6936,0,460,4704,642,5296,515,6304,-17,-4,?
2017-03-27 15:03:24.684000,539,6824,-80,1200,-1181,296,-553,960,72,1064,539,1008,-23,6472,211,6632,1351,4728,330,376,6935,0,660,4704,670,5296,526,6304,-18,-4,?
2017-03-27 15:03:24.692000,543,6824,-62,1200,-1208,296,-563,960,44,1064,519,1008,-25,6472,220,6632,1290,4728,370,376,6936,0,619,4704,676,5296,562,6304,-18,-4,?
2017-03-27 15:03:24.700000,538,6824,-59,1200,-1252,296,-571,960,37,1064,551,1008,-33,6472,201,6632,1214,4728,424,376,6936,0,599,4704,668,5296,592,6304,-19,-4,?
2017-03-27 15:03:24.708000,546,6824,-72,1200,-1281,296,-564,960,45,1064,582,1008,-28,6472,217,6632,1191,4728,484,376,6935,0,630,4704,682,5296,596,6304,-19,-4,?
2017-03-27 15:03:24.720000,559,6824,-58,1200,-1288,296,-576,960,30,1064,557,1008,-31,6472,229,6632,1156,4728,537,376,6936,0,620,4704,697,5296,600,6304,-20,-4,?
2017-03-27 15:03:24.724000,552,6840,-62,1200,-1304,296,-586,960,22,1064,567,1008,-18,6472,212,6632,1108,4728,579,376,6935,0,602,4704,686,5296,600,6304,-20,-4,?
2017-03-27 15:03:24.731000,555,6840,-65,1208,-1340,296,-571,960,37,1064,635,1008,-1,6472,231,6632,1099,4728,624,376,6936,0,591,4704,691,5296,607,6304,-20,-4,?
2017-03-27 15:03:24.738000,566,6840,-63,1208,-1366,296,-570,960,41,1064,659,1008,-19,6472,274,6632,1111,4728,675,376,6935,0,596,4704,706,5296,629,6328,-19,-4,?
2017-03-27 15:03:24.748000,566,6840,-69,1208,-1370,312,-592,960,29,1064,655,1008,-19,6472,288,6632,1105,4728,716,376,6936,0,627,4704,708,5296,650,6328,-19,-4,?
2017-03-27 15:03:24.754000,564,6840,-62,1208,-1386,312,-596,976,28,1064,690,1008,-1,6472,272,6632,1084,4728,722,376,6936,0,639,4704,715,5296,656,6328,-18,-3,?
2017-03-27 15:03:24.763000,553,6840,-66,1208,-1420,312,-592,976,32,1072,730,1008,-15,6472,245,6632,1071,4728,727,376,6935,0,631,4704,717,5296,636,6328,-17,-3,?
2017-03-27 15:03:24.770000,546,6840,-73,1208,-1440,312,-604,976,40,1072,758,1008,-17,6472,261,6632,1068,4728,759,376,6938,0,637,4704,715,5296,621,6328,-16,-3,?
2017-03-27 15:03:24.784000,565,6840,-67,1208,-1450,312,-592,976,67,1072,795,1008,24,6488,339,6632,1087,4728,786,376,6988,0,657,4704,730,5296,638,6328,-15,-3,?
2017-03-27 15:03:24.785000,585,6840,-67,1208,-1461,312,-558,976,81,1072,829,1008,43,6488,373,6632,1112,4728,802,376,7020,0,643,4704,739,5296,651,6328,-14,-2,?
2017-03-27 15:03:24.794000,577,6840,-62,1208,-1470,312,-571,976,62,1072,835,1008,29,6488,328,6632,1097,4728,809,376,6915,0,613,4704,729,5296,634,6328,-13,-2,?
2017-03-27 15:03:24.801000,562,6840,-67,1208,-1487,312,-606,976,56,1072,833,1008,24,6488,304,6632,1072,4728,815,296,7395,0,576,4704,716,5296,618,6328,-11,-2,?
2017-03-27 15:03:24.811000,565,6840,-72,1208,-1508,312,-590,976,65,1072,839,1008,30,6488,319,6632,1074,4728,800,296,7385,24,478,4704,706,5296,623,6328,-10,-2,?
2017-03-27 15:03:24.818000,565,6840,-63,1208,-1516,312,-573,976,57,1072,845,1008,25,6488,306,6632,1085,4728,686,296,5390,24,358,4616,687,5296,622,6328,-9,-1,?
2017-03-27 15:03:24.826000,550,6840,-67,1208,-1522,312,-592,976,52,1072,846,1008,5,6488,294,6632,1092,4728,623,296,5680,24,306,4616,662,5296,605,6328,-7,-1,?
2017-03-27 15:03:24.832000,555,6840,-67,1208,-1523,312,-601,976,56,1072,852,1008,6,6488,312,6632,1091,4728,621,288,5630,24,312,4616,662,5296,605,6328,-6,-1,?
2017-03-27 15:03:24.841000,584,6840,-60,1208,-1505,312,-590,976,61,1072,872,1008,26,6488,329,6632,1074,4728,348,288,-695,0,315,4616,680,5296,623,6328,-5,-1,?
2017-03-27 15:03:24.847000,593,6840,-65,1208,-1488,312,-582,976,73,1072,878,1008,27,6488,333,6632,1065,4728,87,288,-3999,0,306,4616,677,5296,630,6328,-4,-1,?
2017-03-27 15:03:24.856000,584,6840,-63,1208,-1489,312,-577,976,85,1072,872,1008,29,6488,340,6632,1071,4728,327,288,2795,0,296,4616,662,5296,620,6328,-3,-1,?
2017-03-27 15:03:24.863000,582,6840,-62,1208,-1483,312,-570,976,91,1072,894,1008,60,6488,366,6632,1080,4728,652,288,8181,0,295,4616,666,5296,608,6328,-2,-1,?
2017-03-27 15:03:24.871000,589,6840,-72,1208,-1477,312,-557,976,99,1072,918,1008,73,6488,376,6632,1078,4728,610,288,6815,0,293,4616,673,5296,602,6328,-2,-1,?
2017-03-27 15:03:24.879000,589,6840,-68,1208,-1489,312,-563,976,95,1072,904,1008,42,6488,323,6632,1048,4728,516,288,6470,0,263,4616,653,5296,589,6328,-1,-1,?
2017-03-27 15:03:24.887000,568,6840,-61,1208,-1501,312,-594,976,85,1072,901,1008,21,6488,270,6632,1008,4728,537,288,7572,0,245,4616,623,5296,571,6328,0,-1,?
2017-03-27 15:03:24.895000,555,6840,-62,1208,-1505,312,-590,976,92,1072,927,1008,28,6488,277,6632,994,4728,517,288,7171,0,245,4616,624,5296,568,6328,0,-1,?
2017-03-27 15:03:24.902000,558,6840,-71,1208,-1508,312,-563,976,97,1072,933,1008,28,6488,291,6632,995,4728,497,288,6943,0,226,4616,634,5296,568,6328,1,-1,?
2017-03-27 15:03:24.910000,559,6840,-75,1208,-1500,312,-570,976,89,1072,918,1008,5,6488,272,6632,1004,4728,492,288,6934,0,229,4616,632,5296,561,6328,1,-1,?
2017-03-27 15:03:24.919000,571,6840,-65,1208,-1484,312,-575,976,92,1072,909,1008,-12,6488,267,6632,1011,4728,480,288,6937,0,213,4616,656,5296,568,6328,1,-1,?
2017-03-27 15:03:24.927000,578,6840,-61,1208,-1482,312,-565,976,98,1072,905,1008,-20,6488,270,6632,982,4728,469,288,6934,0,76,4616,707,5296,566,6328,2,-1,?
2017-03-27 15:03:24.935000,566,6840,-64,1208,-1455,312,-567,976,98,1072,909,1008,-36,6488,253,6632,950,4728,455,288,6937,0,-58,4616,742,5296,555,6328,2,0,?
2017-03-27 15:03:24.944000,561,6840,-70,1208,-1378,312,-567,976,100,1072,913,1008,-38,6488,251,6632,964,4728,453,288,6935,0,-54,4616,740,5296,551,6328,2,0,?
2017-03-27 15:03:24.949000,558,6840,-65,1208,-1308,312,-570,976,98,1072,895,1008,-25,6488,261,6632,994,4728,444,288,6938,0,-42,4616,724,5296,541,6328,2,0,?
2017-03-27 15:03:24.958000,546,6840,-58,1208,-1263,312,-577,976,92,1072,880,1008,-27,6488,246,6632,988,4728,422,288,6935,0,-78,4616,713,5296,526,6328,3,-1,?
2017-03-27 15:03:24.965000,545,6840,-70,1208,-1209,312,-570,976,102,1072,876,1008,-33,6488,233,6632,961,4728,418,288,6935,0,-66,4616,711,5296,524,6328,3,-1,?
2017-03-27 15:03:24.975000,560,6840,-68,1208,-1156,312,-567,976,117,1072,864,1008,-18,6488,265,6632,962,4728,432,288,6936,0,-47,4616,704,5296,536,6328,3,-1,?
2017-03-27 15:03:24.981000,565,6840,-62,1208,-1117,312,-570,976,118,1072,862,1008,11,6488,292,6632,991,4728,441,288,6935,0,-65,4616,665,5296,540,6328,3,-1,?
2017-03-27 15:03:24.989000,555,6840,-68,1208,-1092,312,-568,976,119,1072,876,1008,30,6488,275,6632,998,4728,439,288,6935,0,-58,4616,618,5296,535,6328,4,-1,?
2017-03-27 15:03:24.996000,545,6840,-67,1208,-1077,312,-571,976,126,1072,871,1008,35,6488,274,6632,998,4728,446,288,6935,0,-32,4616,604,5296,535,6328,4,-1,?
2017-03-27 15:03:25.004000,542,6840,-70,1208,-1056,312,-565,976,126,1072,855,1008,36,6488,291,6632,1024,4728,450,288,6935,0,-31,4616,602,5296,541,6328,4,-1,?
2017-03-27 15:03:25.012000,533,6840,-73,1208,-1038,312,-561,976,120,1072,851,1008,38,6488,276,6632,1015,4728,435,288,6935,0,-51,4616,591,5296,541,6328,4,-1,?
2017-03-27 15:03:25.020000,519,6840,-74,1208,-1027,312,-581,976,118,1072,850,1008,36,6488,266,6632,988,4728,431,288,6935,0,-72,4616,575,5296,535,6328,4,0,?
2017-03-27 15:03:25.028000,517,6840,-68,1208,-1002,312,-586,976,119,1072,841,1008,37,6488,284,6632,999,4728,446,288,6935,0,-53,4616,573,5296,536,6328,5,0,?
2017-03-27 15:03:25.035000,520,6840,-63,1208,-976,312,-570,976,121,1072,836,1008,37,6488,287,6632,1015,4728,447,288,6935,0,-47,4616,585,5296,538,6328,5,0,?
2017-03-27 15:03:25.043000,527,6840,-67,1208,-966,312,-571,976,123,1072,839,1008,28,6488,277,6632,1011,4728,440,288,6935,0,-46,4616,588,5296,547,6328,5,0,?
2017-03-27 15:03:25.051000,549,6840,-60,1208,-953,312,-578,976,122,1072,830,1008,40,6488,287,6632,1015,4728,457,288,6935,0,76,4616,586,5296,570,6328,5,0,?
2017-03-27 15:03:25.060000,558,6840,-59,1208,-925,312,-564,976,123,1072,815,1008,60,6488,302,6632,1019,4728,467,288,6935,0,168,4616,590,5296,579,6328,5,-1,?
2017-03-27 15:03:25.067000,543,6840,-70,1208,-909,312,-560,976,127,1072,808,1008,48,6488,286,6632,1002,4728,446,288,6935,0,50,4616,582,5296,573,6328,5,-1,?
2017-03-27 15:03:25.075000,544,6840,-65,1208,-897,312,-568,976,119,1072,792,1008,26,6488,267,6632,997,4728,433,288,6935,0,-69,4616,573,5296,582,6328,5,-1,?
2017-03-27 15:03:25.083000,563,6840,-62,1208,-870,312,-563,976,119,1072,778,1008,28,6488,275,6632,1009,4728,445,288,6935,0,-59,4616,577,5296,594,6328,5,-1,?
2017-03-27 15:03:25.090000,566,6840,-66,1208,-863,312,-562,976,123,1072,777,1008,34,6488,280,6632,1010,4728,456,288,6935,0,-33,4616,592,5296,592,6328,5,-1,?
2017-03-27 15:03:25.098000,558,6840,-69,1208,-870,312,-566,976,109,1072,762,1008,33,6488,285,6632,1007,4728,457,288,6935,0,-6,4616,606,5296,585,6328,5,-1,?
2017-03-27 15:03:25.106000,563,6840,-69,1208,-844,312,-563,976,104,1072,738,1008,34,6488,302,6632,1016,4728,469,288,6935,0,-32,4616,609,5296,592,6328,5,-2,?
2017-03-27 15:03:25.114000,566,6840,-62,1208,-814,312,-565,976,114,1072,736,1008,30,6488,285,6632,1014,4728,470,288,6935,0,37,4616,605,5296,605,6328,5,-2,?
2017-03-27 15:03:25.121000,545,6840,-67,1208,-819,312,-569,976,117,1072,745,1008,29,6488,246,6632,997,4728,450,288,6935,0,431,4616,590,5296,597,6328,4,-2,?
2017-03-27 15:03:25.129000,537,6840,-71,1208,-825,312,-554,976,122,1072,748,1008,34,6488,250,6632,996,4728,447,288,6935,0,653,4616,587,5296,589,6328,4,-2,?
2017-03-27 15:03:25.138000,555,6840,-65,1208,-816,312,-530,976,129,1072,752,1008,36,6488,276,6632,1006,4728,472,288,6935,0,316,4616,605,5296,600,6328,4,-2,?
2017-03-27 15:03:25.146000,548,6840,-67,1208,-802,312,-524,976,132,1072,749,1008,37,6488,276,6632,1012,4728,484,288,6935,0,-25,4616,606,5296,609,6328,4,-2,?
2017-03-27 15:03:25.153000,517,6840,-66,1208,-788,312,-548,976,123,1072,729,1008,25,6488,256,6632,1005,4728,467,288,6935,0,-13,4616,591,5296,597,6328,3,-2,?
2017-03-27 15:03:25.162000,494,6840,-70,1208,-804,312,-588,976,98,1072,693,1008,1,6488,233,6632,987,4728,451,288,6935,0,13,4616,576,5296,575,6328,3,-2,?
2017-03-27 15:03:25.169000,488,6840,-75,1208,-830,312,-598,976,91,1072,680,1008,-5,6488,245,6632,1000,4728,451,288,6935,0,-37,4616,580,5296,576,6328,3,-2,?
2017-03-27 15:03:25.177000,475,6840,-69,1208,-808,312,-574,976,118,1072,707,1008,7,6488,284,6632,1030,4728,468,288,6935,0,-13,4616,599,5296,585,6328,3,-2,?
2017-03-27 15:03:25.184000,451,6840,-72,1208,-775,312,-560,976,126,1072,712,1008,9,6488,276,6632,1027,4728,483,288,6935,0,16,4616,600,5296,576,6328,2,-2,?
2017-03-27 15:03:25.193000,442,6840,-65,1208,-783,312,-577,976,104,1072,688,1008,0,6488,236,6632,1007,4728,467,288,6935,0,0,4616,589,5296,571,6328,2,-2,?
2017-03-27 15:03:25.200000,447,6840,-61,1208,-790,312,-592,976,98,1072,682,1008,-13,6488,234,6632,991,4728,448,288,6935,0,-10,4616,591,5296,577,6328,2,-2,?
2017-03-27 15:03:25.208000,440,6840,-66,1208,-772,312,-586,976,112,1072,687,1008,-23,6488,249,6632,979,4728,459,288,6935,0,3,4616,600,5296,582,6328,2,-2,?
2017-03-27 15:03:25.215000,427,6840,-65,1208,-771,312,-577,976,113,1072,683,1008,-12,6488,250,6632,988,4728,462,288,6935,0,5,4616,592,5296,575,6328,2,-2,?
2017-03-27 15:03:25.224000,425,6840,-71,1208,-780,312,-569,976,109,1072,687,1008,1,6488,264,6632,1016,4728,446,288,6935,0,-8,4616,582,5296,573,6328,2,-2,?
2017-03-27 15:03:25.232000,433,6840,-66,1192,-767,312,-569,976,112,1072,693,1008,-2,6488,275,6632,1035,4728,451,288,6935,0,-13,4616,591,5296,581,6328,2,-2,?
2017-03-27 15:03:25.240000,432,6840,-61,1192,-758,312,-587,976,111,1072,686,1008,-4,6488,264,6632,1027,4728,463,288,6935,0,-10,4616,596,5296,581,6320,2,-2,?
2017-03-27 15:03:25.248000,427,6840,-65,1192,-770,312,-598,976,105,1072,679,1008,4,6488,268,6632,1012,4728,447,288,6935,0,-3,4616,585,5296,578,6320,2,-2,?
2017-03-27 15:03:25.255000,429,6840,-65,1192,-769,312,-583,976,111,1072,678,1008,14,6488,285,6632,1019,4728,445,288,6935,0,-2,4616,583,5296,586,6320,3,-2,?
2017-03-27 15:03:25.262000,449,6840,-69,1192,-749,312,-576,976,128,1056,688,1008,22,6488,290,6632,1047,4728,471,288,6935,0,-4,4616,592,5296,592,6320,3,-2,?
2017-03-27 15:03:25.271000,479,6840,-65,1192,-742,312,-595,976,121,1056,688,992,37,6488,293,6632,1058,4728,475,288,6935,0,1,4616,604,5296,591,6320,3,-2,?
2017-03-27 15:03:25.279000,484,6840,-63,1192,-750,312,-599,976,103,1056,669,992,32,6472,293,6632,1037,4728,460,288,6935,0,-1,4616,600,5296,582,6320,3,-2,?
2017-03-27 15:03:25.287000,471,6840,-71,1192,-751,312,-577,976,109,1056,669,992,-39,6472,282,6632,1015,4728,451,288,6935,0,-13,4616,586,5296,579,6320,4,-1,?
2017-03-27 15:03:25.294000,477,6840,-69,1192,-738,312,-570,976,124,1056,680,992,-114,6472,279,6632,1012,4704,443,288,6935,0,-19,4616,589,5296,587,6320,4,-1,?
2017-03-27 15:03:25.303000,485,6840,-68,1192,-726,312,-571,976,126,1056,674,992,-82,6472,284,6632,1023,4704,439,272,6935,0,-10,4616,594,5296,590,6320,4,-1,?
2017-03-27 15:03:25.310000,484,6840,-62,1192,-725,312,-562,976,131,1056,679,992,1,6472,279,6632,1026,4704,443,272,6935,24,2,4616,596,5296,590,6320,5,-1,?
2017-03-27 15:03:25.317000,481,6840,-59,1192,-731,312,-569,976,134,1056,687,992,14,6472,270,6632,1011,4704,439,272,6935,24,-4,4632,597,5296,586,6320,6,-1,?
2017-03-27 15:03:25.327000,464,6840,-65,1192,-730,312,-598,976,110,1056,665,992,-12,6472,259,6632,1000,4704,438,272,6935,24,-11,4632,584,5288,577,6320,6,-1,?
2017-03-27 15:03:25.334000,451,6840,-60,1192,-724,312,-604,976,96,1056,642,992,-2,6472,251,6632,1000,4704,446,272,6935,24,-4,4632,581,5288,585,6320,7,-1,?
2017-03-27 15:03:25.344000,459,6840,-59,1192,-723,312,-592,976,105,1056,648,992,17,6472,259,6632,1012,4704,448,272,6935,0,-2,4632,591,5288,595,6320,7,-1,?
2017-03-27 15:03:25.348000,468,6840,-65,1192,-716,312,-595,976,113,1056,662,992,11,6472,264,6632,1008,4704,463,272,6935,0,8,4624,595,5288,594,6320,8,-1,?
2017-03-27 15:03:25.357000,461,6840,-70,1192,-713,312,-597,976,113,1056,654,992,-2,6472,259,6632,1001,4704,506,272,6935,0,28,4624,592,5288,598,6320,8,-1,?
2017-03-27 15:03:25.365000,459,6840,-74,1192,-730,312,-595,976,113,1056,637,992,2,6472,272,6632,1021,4704,540,272,6935,0,34,4624,596,5288,613,6320,9,-1,?
2017-03-27 15:03:25.375000,484,6840,-65,1192,-733,312,-605,976,109,1056,633,992,11,6472,278,6632,1024,4704,553,272,6935,0,47,4624,612,5288,640,6320,9,0,?
2017-03-27 15:03:25.379000,507,6840,-61,1192,-684,312,-602,976,106,1056,640,992,5,6472,252,6632,991,4704,567,272,6935,0,64,4624,616,5288,671,6320,10,0,?
2017-03-27 15:03:25.387000,509,6840,-64,1192,-627,312,-575,976,114,1056,645,992,-6,6472,240,6632,979,4704,577,272,6935,0,57,4624,605,5288,696,6320,11,0,?
2017-03-27 15:03:25.395000,513,6840,-59,1192,-594,312,-576,976,121,1056,650,992,-11,6472,247,6632,997,4704,569,272,6935,0,46,4624,606,5288,725,6320,11,0,?
2017-03-27 15:03:25.404000,526,6840,-61,1192,-554,312,-602,976,109,1056,636,992,-30,6472,225,6632,978,4704,542,272,6935,0,36,4624,608,5288,754,6320,12,0,?
2017-03-27 15:03:25.411000,533,6840,-59,1192,-513,312,-592,976,86,1056,600,992,-52,6472,196,6632,939,4704,512,272,6935,0,11,4624,601,5288,775,6320,13,0,?
2017-03-27 15:03:25.420000,540,6840,-56,1192,-477,312,-570,976,88,1056,582,992,-53,6472,195,6632,944,4704,494,272,6935,0,-11,4624,604,5288,792,6320,13,1,?
2017-03-27 15:03:25.427000,548,6840,-58,1192,-431,312,-581,976,95,1056,568,992,-54,6472,190,6632,955,4704,479,272,6935,0,-14,4624,618,5288,821,6320,14,1,?
2017-03-27 15:03:25.435000,543,6840,-49,1192,-404,312,-604,976,82,1056,540,992,-67,6472,165,6632,935,4704,443,272,6935,0,-26,4624,622,5288,837,6320,14,1,?
2017-03-27 15:03:25.443000,535,6840,-55,1192,-386,312,-595,976,83,1056,532,992,-74,6472,156,6632,926,4704,401,272,6935,0,-46,4624,613,5288,832,6320,15,0,?
2017-03-27 15:03:25.451000,542,6840,-60,1192,-356,312,-581,976,88,1056,524,992,-84,6472,151,6632,919,4704,372,272,6935,0,-58,4624,619,5288,833,6320,15,0,?
2017-03-27 15:03:25.459000,547,6840,-55,1192,-338,312,-588,976,74,1056,496,992,-104,6472,129,6632,885,4704,339,272,6935,0,-63,4624,626,5288,839,6320,15,0,?
2017-03-27 15:03:25.466000,554,6840,-58,1192,-324,312,-579,976,70,1056,479,992,-106,6472,115,6632,877,4704,304,272,6935,0,-63,4624,620,5288,839,6320,15,0,?
2017-03-27 15:03:25.473000,580,6840,-52,1192,-284,312,-551,976,83,1056,480,992,-94,6472,120,6632,910,4704,284,272,6935,0,-59,4624,626,5288,846,6320,15,-1,?
2017-03-27 15:03:25.482000,594,6840,-50,1192,-261,312,-548,976,90,1056,475,992,-87,6472,125,6632,915,4704,266,272,6935,0,-66,4624,632,5288,851,6320,15,-1,?
2017-03-27 15:03:25.489000,577,6840,-56,1192,-269,312,-573,976,90,1056,473,992,-96,6472,119,6632,885,4704,231,272,6935,0,-79,4624,624,5288,844,6320,15,-1,?
2017-03-27 15:03:25.497000,556,6840,-60,1192,-265,312,-577,976,82,1056,461,992,-118,6472,117,6632,877,4704,204,272,6935,0,-74,4624,616,5288,828,6320,15,-1,?
2017-03-27 15:03:25.505000,550,6840,-60,1192,-255,312,-552,976,74,1056,437,992,-125,6472,132,6632,904,4704,195,272,6935,0,-78,4624,611,5288,813,6320,15,-1,?
2017-03-27 15:03:25.512000,560,6840,-52,1192,-263,312,-538,976,85,1056,435,992,-121,6472,129,6632,910,4704,168,272,6935,0,-112,4624,608,5288,795,6320,15,-1,?
2017-03-27 15:03:25.520000,567,6840,-57,1192,-270,312,-549,976,93,1056,449,992,-125,6472,100,6632,865,4704,126,272,6935,0,-135,4624,593,5288,767,6320,15,-1,?
2017-03-27 15:03:25.528000,576,6840,-62,1192,-256,312,-546,976,85,1056,460,992,-116,6472,92,6632,858,4704,97,272,6935,0,-139,4624,583,5288,750,6320,14,-1,?
2017-03-27 15:03:25.536000,593,6840,-60,1192,-251,312,-522,976,93,1056,465,992,-96,6472,101,6632,917,4704,82,272,6936,0,-150,4624,592,5288,744,6320,14,-1,?
2017-03-27 15:03:25.547000,591,6840,-63,1192,-260,312,-522,976,96,1056,453,992,-96,6472,108,6632,918,4704,57,272,6942,0,-158,4624,592,5288,719,6320,14,-1,?
2017-03-27 15:03:25.551000,580,6840,-59,1192,-261,312,-527,976,82,1056,413,992,-119,6472,120,6632,859,4704,13,272,6948,0,-149,4624,580,5288,691,6320,14,-1,?
2017-03-27 15:03:25.560000,591,6840,-57,1192,-247,312,-504,976,84,1056,379,992,-148,6472,109,6632,849,4704,-4,272,6928,0,-129,4624,575,5288,686,6320,13,-1,?
2017-03-27 15:03:25.567000,611,6840,-58,1192,-221,312,-495,976,96,1056,373,992,-159,6472,100,6632,905,4704,9,272,6928,0,-115,4624,577,5288,693,6320,13,0,?
2017-03-27 15:03:25.578000,598,6840,-55,1192,-215,312,-511,976,87,1056,368,992,-151,6472,109,6632,927,4704,-17,272,6953,0,-133,4624,600,5288,674,6320,13,0,?
2017-03-27 15:03:25.584000,584,6840,-62,1192,-236,312,-509,976,76,1056,363,992,-155,6472,90,6632,885,4704,-46,272,6825,0,-127,4624,649,5288,652,6320,13,1,?
2017-03-27 15:03:25.595000,601,6840,-58,1192,-239,312,-499,976,82,1056,382,992,-159,6472,77,6632,911,4704,-28,272,6657,0,-88,4624,669,5288,656,6320,13,1,?
2017-03-27 15:03:25.598000,600,6840,-54,1192,-223,312,-504,976,94,1056,414,992,-132,6472,123,6632,1017,4704,-18,272,6745,0,-97,4624,658,5288,652,6320,13,2,?
2017-03-27 15:03:25.607000,571,6840,-61,1192,-229,312,-516,976,98,1056,421,992,-94,6472,139,6632,1023,4704,-26,272,6914,0,-125,4624,715,5288,634,6320,13,3,?
2017-03-27 15:03:25.615000,573,6840,-58,1192,-242,312,-513,976,95,1056,402,992,-88,6472,107,6632,954,4704,-9,272,6923,0,-90,4624,804,5288,633,6320,13,4,?
2017-03-27 15:03:25.622000,600,6840,-58,1192,-229,312,-500,976,98,1056,380,992,-110,6472,118,6632,1008,4704,16,272,6914,0,-49,4624,816,5288,646,6320,13,5,?
2017-03-27 15:03:25.631000,594,6840,-58,1192,-234,312,-508,976,94,1056,354,992,-132,6472,139,6632,1089,4704,7,272,6955,0,-54,4624,786,5288,641,6320,14,6,?
2017-03-27 15:03:25.640000,572,6840,-57,1192,-249,312,-533,976,68,1056,329,992,-129,6472,112,6632,1068,4704,2,272,6946,0,-55,4624,755,5288,623,6320,14,7,?
2017-03-27 15:03:25.645000,572,6840,-59,1192,-235,312,-542,976,60,1056,331,992,-97,6472,104,6632,1079,4704,21,272,6932,0,-30,4624,720,5288,631,6320,15,7,?
2017-03-27 15:03:25.653000,577,6840,-55,1192,-216,312,-519,976,86,1056,358,992,-74,6472,132,6632,1129,4704,40,272,6941,0,-8,4624,713,5288,642,6320,15,8,?
2017-03-27 15:03:25.661000,560,6840,-63,1192,-229,312,-493,976,105,1056,356,992,-72,6472,143,6632,1139,4704,36,272,6935,0,-8,4624,703,5288,618,6320,16,7,?
2017-03-27 15:03:25.671000,535,6840,-67,1192,-263,312,-502,976,96,1056,342,992,-60,6472,159,6632,1178,4704,24,272,6938,0,-14,4624,674,5288,592,6320,16,7,?
2017-03-27 15:03:25.678000,534,6840,-57,1192,-272,312,-530,976,87,1056,348,992,-50,6472,182,6632,1238,4704,45,272,6938,0,-8,4624,690,5288,592,6320,17,5,?
2017-03-27 15:03:25.684000,546,6840,-61,1192,-281,312,-539,976,100,1056,348,992,-59,6472,172,6632,1221,4704,80,272,6936,0,4,4624,732,5288,597,6320,17,3,?
2017-03-27 15:03:25.693000,543,6840,-64,1192,-327,312,-545,976,119,1056,371,992,-71,6472,157,6632,1171,4704,65,272,6937,0,0,4624,705,5288,583,6320,17,1,?
2017-03-27 15:03:25.700000,535,6840,-63,1192,-339,312,-559,976,116,1056,406,992,-80,6472,160,6632,1171,4704,30,272,6935,0,-9,4624,637,5288,577,6320,17,-1,?
2017-03-27 15:03:25.709000,547,6840,-63,1192,-289,312,-546,976,96,1056,352,992,-91,6472,146,6632,1174,4704,41,272,6935,0,-3,4624,620,5288,604,6320,17,-3,?
2017-03-27 15:03:25.716000,553,6840,-62,1192,-271,312,-542,976,75,1056,313,992,-108,6472,102,6632,1114,4704,8,272,6935,0,-47,4624,641,5288,607,6320,17,-4,?
2017-03-27 15:03:25.725000,523,6840,-67,1192,-307,312,-582,976,67,1056,412,992,-155,6472,55,6632,1056,4704,-79,272,6935,0,-95,4624,632,5288,565,6320,16,-4,?
2017-03-27 15:03:25.731000,487,6824,-63,1192,-308,312,-599,976,70,1056,481,992,-196,6472,16,6632,1102,4704,-84,272,6939,0,-58,4624,601,5288,548,6320,16,-4,?
2017-03-27 15:03:25.744000,478,6824,-59,1192,-270,312,-560,976,68,1056,445,992,-173,6472,3,6632,1185,4704,-48,272,7047,0,-63,4624,588,5288,564,6320,15,-4,?
2017-03-27 15:03:25.747000,488,6824,-60,1192,-247,312,-533,976,61,1056,451,992,-143,6472,-3,6632,1170,4704,-64,272,7422,0,-106,4624,605,5288,573,6328,14,-3,?
2017-03-27 15:03:25.755000,494,6824,-66,1192,-244,288,-556,976,64,1056,492,992,-155,6472,-18,6632,1155,4704,-119,272,7354,0,-145,4624,616,5288,569,6328,13,-3,?
2017-03-27 15:03:25.763000,494,6824,-69,1192,-229,288,-572,928,67,1056,460,992,-159,6472,-9,6632,1216,4704,-160,272,6971,0,-431,4624,605,5288,570,6328,12,-3,?
2017-03-27 15:03:25.770000,497,6824,-56,1192,-198,288,-556,928,58,1072,382,992,-138,6472,8,6632,1177,4704,-171,272,7703,0,-943,4624,604,5288,584,6328,11,-3,?
2017-03-27 15:03:25.778000,512,6824,-60,1192,-166,288,-548,928,57,1072,336,992,-124,6472,12,6632,1018,4704,-259,272,6078,0,-1149,4624,622,5288,606,6328,10,-3,?
2017-03-27 15:03:25.786000,547,6824,-72,1192,-152,288,-547,928,62,1072,325,992,-120,6472,23,6632,942,4704,-518,272,-685,0,-843,4624,631,5288,625,6328,9,-3,?
2017-03-27 15:03:25.795000,553,6824,-57,1192,-165,288,-531,928,61,1072,303,992,-119,6472,31,6648,962,4704,-810,272,-6613,0,-484,4624,629,5288,629,6328,9,-2,?
2017-03-27 15:03:25.803000,533,6824,-57,1192,-191,288,-523,928,59,1072,267,992,-120,6472,44,6648,968,4728,-959,272,-7295,0,-381,4624,615,5288,611,6328,8,-2,?
2017-03-27 15:03:25.811000,540,6824,-66,1192,-218,288,-522,928,59,1072,258,992,-125,6472,55,6648,951,4728,-971,272,-6820,0,-383,4624,606,5288,593,6328,7,-2,?
2017-03-27 15:03:25.818000,549,6824,-66,1192,-243,288,-515,928,65,1072,262,992,-141,6472,36,6648,916,4728,-939,272,-7484,1168,-339,4624,618,5288,590,6328,7,-2,?
2017-03-27 15:03:25.826000,521,6824,-72,1192,-272,288,-523,928,77,1072,249,992,-163,6472,13,6648,909,4728,-941,272,-7385,1168,-329,4712,620,5288,578,6328,7,-2,?
2017-03-27 15:03:25.834000,501,6824,-68,1192,-303,288,-539,928,73,1072,236,992,-169,6472,24,6648,941,4728,-951,272,-6961,1168,-397,4712,603,5280,552,6328,6,-3,?
2017-03-27 15:03:25.842000,508,6824,-67,1192,-318,288,-528,928,66,1072,244,992,-142,6472,51,6648,936,4728,-909,256,-6968,1168,-397,4712,603,5280,544,6328,6,-2,?
2017-03-27 15:03:25.852000,518,6824,-68,1192,-315,288,-515,928,83,1072,252,992,-120,6472,65,6648,904,4728,-880,256,-6935,1152,-315,4712,623,5280,549,6328,6,-2,?
2017-03-27 15:03:25.856000,522,6824,-67,1192,-322,288,-520,928,87,1072,248,992,-122,6472,88,6648,915,4728,-886,256,-6936,1152,-295,4712,626,5280,547,6328,6,-2,?
2017-03-27 15:03:25.865000,529,6824,-69,1192,-331,288,-515,928,80,1072,245,992,-108,6472,114,6648,953,4728,-856,256,-6933,1152,-364,4712,626,5280,553,6328,5,-2,?
2017-03-27 15:03:25.872000,553,6824,-58,1192,-319,288,-505,928,86,1072,238,992,-107,6472,109,6648,947,4728,-827,256,-6936,1152,-398,4712,655,5280,569,6328,5,-2,?
2017-03-27 15:03:25.881000,563,6824,-60,1192,-313,288,-516,928,84,1072,219,992,-138,6472,94,6648,913,4728,-826,256,-6933,1152,-358,4712,663,5280,577,6328,5,-2,?
2017-03-27 15:03:25.888000,550,6824,-67,1192,-333,288,-540,928,59,1072,217,992,-140,6472,93,6648,908,4728,-820,256,-6933,1152,-335,4712,654,5280,573,6328,5,-1,?
2017-03-27 15:03:25.898000,545,6824,-62,1192,-347,288,-543,928,53,1072,238,992,-112,6472,95,6648,926,4728,-821,256,-6934,1152,-338,4712,659,5280,563,6328,5,-1,?
2017-03-27 15:03:25.903000,541,6824,-66,1192,-346,288,-535,928,73,1072,245,992,-117,6472,94,6648,920,4728,-829,256,-6934,1152,-337,4712,664,5280,556,6328,5,-2,?
2017-03-27 15:03:25.911000,529,6824,-65,1192,-357,288,-532,928,86,1072,239,992,-129,6472,89,6648,909,4728,-831,256,-6934,1152,-325,4712,661,5280,554,6328,5,-3,?
2017-03-27 15:03:25.920000,524,6824,-64,1192,-364,288,-506,928,91,1072,237,992,-117,6472,74,6648,931,4728,-827,256,-6934,1152,-277,4712,652,5280,544,6328,5,-3,?
2017-03-27 15:03:25.928000,526,6824,-66,1192,-362,288,-498,928,88,1072,217,992,-118,6472,75,6648,931,4728,-839,256,-6934,1152,-228,4712,652,5280,528,6328,5,-3,?
2017-03-27 15:03:25.936000,519,6824,-68,1192,-377,288,-538,928,67,1072,198,992,-131,6472,85,6648,884,4728,-867,256,-6934,1152,-217,4712,658,5280,519,6328,5,-3,?
2017-03-27 15:03:25.944000,513,6824,-72,1192,-382,288,-551,928,70,1072,226,992,-131,6472,74,6648,873,4728,-872,256,-6934,1152,-206,4712,657,5280,520,6328,5,-3,?
2017-03-27 15:03:25.953000,519,6824,-65,1192,-371,288,-535,928,89,1072,263,992,-122,6472,64,6648,908,4728,-863,256,-6934,1152,-185,4712,655,5280,522,6328,5,-3,?
2017-03-27 15:03:25.970000,516,6824,-67,1192,-378,288,-532,928,82,1072,274,992,-120,6472,78,6648,934,4728,-869,256,-6934,1152,-167,4712,650,5280,509,6328,5,-3,?
2017-03-27 15:03:25.970000,512,6824,-66,1192,-379,288,-524,928,64,1072,293,992,-109,6472,77,6648,926,4728,-867,256,-6934,1152,-136,4712,653,5280,507,6328,5,-3,?
2017-03-27 15:03:25.982000,521,6824,-57,1192,-346,288,-514,928,63,1072,316,992,-102,6472,64,6648,909,4728,-858,256,-6934,1152,-115,4712,663,5280,527,6328,5,-3,?
2017-03-27 15:03:25.996000,519,6824,-66,1192,-324,288,-525,928,78,1072,320,992,-107,6472,67,6648,921,4728,-872,256,-6934,1152,-118,4712,661,5280,531,6328,5,-3,?
2017-03-27 15:03:25.997000,511,6824,-66,1192,-341,288,-541,928,88,1072,319,992,-110,6472,60,6648,936,4728,-890,256,-6934,1152,-106,4712,657,5280,516,6328,4,-2,?
2017-03-27 15:03:25.998000,509,6824,-66,1192,-355,288,-533,928,82,1072,321,992,-115,6472,46,6648,929,4728,-892,256,-6934,1152,-86,4712,662,5280,511,6328,4,-2,?
2017-03-27 15:03:26.006000,506,6824,-70,1192,-335,288,-514,928,74,1072,308,992,-115,6472,54,6648,931,4728,-892,256,-6934,1152,-82,4712,670,5280,521,6328,4,-2,?
2017-03-27 15:03:26.014000,504,6824,-62,1192,-314,288,-512,928,76,1072,293,992,-101,6472,61,6648,952,4728,-883,256,-6934,1152,-73,4712,680,5280,529,6328,4,-2,?
2017-03-27 15:03:26.028000,507,6824,-62,1192,-318,288,-529,928,83,1072,306,992,-93,6472,56,6648,942,4728,-864,256,-6934,1152,-48,4712,689,5280,530,6328,4,-1,?
2017-03-27 15:03:26.029000,501,6824,-63,1192,-324,288,-542,928,83,1072,326,992,-101,6472,70,6648,947,4728,-874,256,-6934,1152,-56,4712,690,5280,521,6328,3,-1,?
2017-03-27 15:03:26.044000,490,6824,-62,1192,-318,288,-539,928,74,1072,320,992,-86,6472,86,6648,988,4728,-876,256,-6934,1152,-66,4712,690,5280,515,6328,3,-1,?
2017-03-27 15:03:26.045000,501,6824,-63,1192,-315,288,-530,928,73,1072,309,992,-62,6472,74,6648,985,4728,-839,256,-6934,1152,-15,4712,700,5280,530,6328,3,-1,?
2017-03-27 15:03:26.053000,516,6824,-59,1192,-314,288,-519,928,93,1072,332,992,-62,6472,80,6648,974,4728,-832,256,-6934,1152,12,4712,707,5280,541,6328,3,-1,?
2017-03-27 15:03:26.060000,515,6824,-63,1192,-311,288,-520,928,94,1072,343,992,-63,6472,106,6648,1024,4728,-863,256,-6934,1152,-37,4712,688,5280,526,6328,3,-1,?
2017-03-27 15:03:26.068000,520,6824,-62,1192,-308,288,-541,928,73,1072,312,992,-60,6472,105,6648,1042,4728,-860,256,-6934,1152,-40,4712,682,5280,527,6328,2,-1,?
2017-03-27 15:03:26.076000,538,6824,-58,1192,-313,288,-540,928,79,1072,294,992,-61,6472,81,6648,992,4728,-833,256,-6934,1152,22,4712,703,5280,535,6328,2,-1,?
2017-03-27 15:03:26.083000,543,6824,-64,1192,-310,288,-512,928,91,1072,296,992,-60,6472,81,6648,988,4728,-831,256,-6934,1152,28,4712,701,5280,522,6328,2,-1,?
2017-03-27 15:03:26.093000,544,6824,-61,1192,-291,288,-507,928,77,1072,288,992,-59,6472,99,6648,1029,4728,-834,256,-6934,1152,6,4712,687,5280,523,6328,2,-1,?
2017-03-27 15:03:26.099000,551,6824,-58,1192,-281,288,-509,928,65,1072,289,992,-73,6472,91,6648,1051,4728,-831,256,-6934,1152,21,4712,682,5280,541,6328,2,-1,?
2017-03-27 15:03:26.109000,558,6824,-60,1192,-285,288,-500,928,66,1072,311,992,-81,6472,86,6648,1082,4728,-825,256,-6934,1152,35,4712,687,5280,549,6328,2,-1,?
2017-03-27 15:03:26.116000,559,6824,-58,1192,-286,288,-518,928,58,1072,312,992,-82,6472,99,6648,1123,4728,-815,256,-6934,1152,29,4712,686,5280,544,6328,2,-1,?
2017-03-27 15:03:26.122000,544,6824,-63,1192,-297,288,-543,928,46,1072,304,992,-94,6472,80,6648,1145,4728,-824,256,-6934,1152,21,4712,666,5280,531,6328,2,-1,?
2017-03-27 15:03:26.131000,543,6824,-58,1192,-305,288,-528,928,58,1072,328,992,-102,6472,60,6648,1150,4728,-832,256,-6934,1152,34,4712,672,5280,538,6328,2,-1,?
2017-03-27 15:03:26.138000,565,6824,-55,1192,-295,288,-515,928,74,1072,338,992,-86,6472,93,6648,1155,4728,-806,256,-6934,1152,53,4712,724,5280,559,6328,2,-1,?
2017-03-27 15:03:26.147000,572,6824,-61,1192,-296,288,-528,928,65,1072,317,992,-78,6472,108,6648,1164,4728,-787,256,-6934,1152,42,4712,770,5280,559,6328,2,-1,?
2017-03-27 15:03:26.155000,563,6824,-59,1192,-300,288,-523,928,55,1072,306,992,-116,6472,83,6648,1169,4728,-800,256,-6934,1152,33,4712,779,5280,559,6328,2,-1,?
2017-03-27 15:03:26.163000,575,6824,-58,1192,-294,288,-503,928,68,1072,320,992,-129,6472,99,6648,1149,4728,-796,256,-6934,1152,54,4712,778,5280,589,6328,2,-1,?
2017-03-27 15:03:26.170000,589,6824,-54,1192,-328,288,-505,928,75,1072,330,992,-82,6472,127,6648,1123,4728,-770,256,-6934,1152,54,4712,792,5280,615,6328,2,-1,?
2017-03-27 15:03:26.178000,571,6824,-55,1192,-393,288,-528,928,66,1072,325,992,-51,6472,106,6648,1116,4728,-788,256,-6934,1152,-3,4712,765,5280,604,6328,2,-1,?
2017-03-27 15:03:26.188000,561,6824,-63,1192,-416,288,-539,928,54,1072,324,992,-65,6472,91,6648,1102,4728,-826,256,-6934,1152,-27,4712,696,5280,595,6328,2,-1,?
2017-03-27 15:03:26.194000,586,6824,-62,1192,-390,288,-520,928,55,1072,330,992,-63,6472,104,6648,1093,4728,-797,256,-6934,1152,24,4712,676,5280,624,6328,2,-1,?
2017-03-27 15:03:26.202000,589,6824,-65,1192,-374,288,-519,928,67,1072,340,992,-51,6472,108,6648,1102,4728,-751,256,-6934,1152,-17,4712,678,5280,640,6328,2,-1,?
2017-03-27 15:03:26.210000,560,6824,-62,1192,-386,288,-545,928,63,1072,337,992,-63,6472,96,6648,1098,4728,-754,256,-6934,1152,5,4712,659,5280,614,6328,1,-1,?
2017-03-27 15:03:26.216000,560,6824,-61,1192,-389,288,-539,928,60,1072,346,992,-49,6472,104,6648,1106,4728,-732,256,-6934,1152,387,4712,657,5280,607,6328,1,-1,?
2017-03-27 15:03:26.225000,583,6824,-66,1192,-384,288,-525,928,76,1072,370,992,-29,6472,129,6648,1127,4728,-672,256,-6934,1152,750,4712,678,5280,631,6328,1,0,?
2017-03-27 15:03:26.233000,588,6824,-56,1192,-394,288,-542,928,86,1072,373,992,-36,6472,151,6648,1137,4728,-628,256,-6934,1152,686,4712,689,5280,642,6328,1,0,?
2017-03-27 15:03:26.241000,579,6824,-58,1200,-402,288,-535,928,98,1072,390,992,-19,6472,183,6648,1167,4728,-584,256,-6934,1152,528,4712,698,5280,638,6328,1,-1,?
2017-03-27 15:03:26.248000,567,6824,-63,1200,-408,288,-509,928,113,1072,416,992,-1,6472,186,6648,1175,4728,-563,256,-6934,1152,524,4712,699,5280,624,6304,1,-1,?
2017-03-27 15:03:26.255000,547,6824,-57,1200,-431,288,-523,928,97,1072,396,992,-22,6472,151,6648,1132,4728,-578,256,-6934,1152,485,4712,674,5280,597,6304,1,-1,?
2017-03-27 15:03:26.263000,544,6824,-58,1200,-435,288,-530,952,91,1072,379,992,-22,6472,155,6648,1151,4728,-544,256,-6934,1152,478,4712,680,5280,594,6304,1,-1,?
2017-03-27 15:03:26.271000,567,6824,-55,1200,-425,288,-511,952,123,1072,410,992,23,6472,206,6648,1221,4728,-484,256,-6934,1152,464,4712,719,5280,615,6304,1,-1,?
2017-03-27 15:03:26.279000,560,6824,-62,1200,-458,288,-519,952,133,1072,419,1016,38,6472,230,6648,1205,4728,-484,256,-6934,1152,262,4712,720,5280,594,6304,1,-1,?
2017-03-27 15:03:26.287000,515,6824,-66,1200,-502,288,-527,952,123,1072,407,1016,16,6488,211,6648,1153,4728,-513,256,-6934,1152,89,4712,694,5280,548,6304,1,-1,?
2017-03-27 15:03:26.295000,495,6824,-65,1200,-519,288,-516,952,133,1072,431,1016,4,6488,203,6648,1161,4728,-506,256,-6934,1152,93,4712,691,5280,535,6304,1,-1,?
2017-03-27 15:03:26.302000,519,6824,-71,1200,-528,288,-527,952,131,1072,452,1016,7,6488,228,6648,1186,4704,-461,256,-6934,1152,129,4712,712,5280,545,6304,1,-1,?
2017-03-27 15:03:26.311000,541,6824,-65,1200,-540,288,-549,952,111,1072,453,1016,13,6488,247,6648,1177,4704,-428,72,-6934,1152,128,4712,737,5280,557,6304,1,-2,?
2017-03-27 15:03:26.318000,528,6824,-60,1200,-545,288,-532,952,114,1072,470,1016,8,6488,227,6648,1161,4704,-420,72,-6934,16,141,4712,739,5280,552,6304,1,-1,?
2017-03-27 15:03:26.327000,512,6824,-69,1200,-554,288,-514,952,124,1072,484,1016,8,6488,219,6648,1166,4704,-400,72,-6934,16,160,4704,727,5280,530,6304,1,-1,?
2017-03-27 15:03:26.334000,506,6824,-72,1200,-579,288,-521,952,121,1072,469,1016,5,6488,250,6648,1178,4704,-370,72,-6934,16,173,4704,755,5288,520,6304,1,-1,?
2017-03-27 15:03:26.343000,517,6824,-39,1200,-595,288,-522,952,121,1072,456,1016,-25,6488,259,6648,1179,4704,-368,64,-6934,16,146,4704,730,5288,528,6304,2,-1,?
2017-03-27 15:03:26.350000,515,6824,-82,1200,-586,288,-506,952,136,1072,467,1016,-40,6488,244,6648,1162,4704,-376,64,-6934,24,138,4704,701,5288,516,6304,2,-1,?
2017-03-27 15:03:26.361000,501,6824,-93,1200,-585,288,-507,952,138,1072,468,1016,-27,6488,234,6648,1124,4704,-389,64,-6934,24,169,4704,771,5288,511,6304,2,-1,?
2017-03-27 15:03:26.366000,503,6824,-22,1200,-614,288,-541,952,116,1072,445,1016,-31,6488,220,6648,1089,4704,-406,64,-6934,24,116,4704,724,5288,521,6304,2,-1,?
2017-03-27 15:03:26.373000,497,6824,-82,1200,-625,288,-545,952,111,1072,438,1016,-26,6488,226,6648,1107,4704,-390,64,-6934,24,98,4704,693,5288,506,6304,2,0,?
2017-03-27 15:03:26.380000,502,6824,-83,1200,-620,288,-522,952,127,1072,451,1016,-10,6488,238,6648,1137,4704,-385,64,-6934,24,121,4704,750,5288,508,6304,2,0,?
2017-03-27 15:03:26.388000,495,6824,-39,1200,-634,288,-532,952,132,1072,438,1016,-13,6488,226,6648,1128,4704,-401,64,-6934,24,79,4704,707,5288,505,6304,2,0,?
2017-03-27 15:03:26.396000,483,6824,-83,1200,-646,288,-539,952,130,1072,422,1016,-13,6488,213,6648,1115,4704,-391,64,-6934,24,52,4704,711,5288,493,6304,2,0,?
2017-03-27 15:03:26.404000,510,6824,-67,1200,-643,288,-518,952,140,1072,434,1016,-3,6488,224,6648,1119,4704,-383,64,-6934,24,43,4704,751,5288,513,6304,2,1,?
2017-03-27 15:03:26.414000,516,6824,-58,1200,-638,288,-497,952,157,1072,453,1016,12,6488,257,6648,1138,4704,-379,64,-6934,24,38,4704,744,5288,518,6304,2,2,?
2017-03-27 15:03:26.419000,500,6824,-68,1200,-641,288,-517,952,159,1072,448,1016,15,6488,267,6648,1127,4704,-384,64,-6934,24,29,4704,733,5288,500,6304,1,2,?
2017-03-27 15:03:26.427000,496,6824,-63,1200,-658,288,-532,952,151,1072,443,1016,1,6488,236,6648,1097,4704,-394,64,-6934,24,28,4704,727,5288,482,6304,1,3,?
2017-03-27 15:03:26.435000,500,6824,-63,1200,-659,288,-507,952,138,1072,448,1016,4,6488,226,6648,1116,4704,-378,64,-6934,24,42,4704,735,5288,485,6304,1,3,?
2017-03-27 15:03:26.444000,490,6824,-66,1200,-661,288,-513,952,125,1072,428,1016,16,6488,242,6648,1146,4704,-408,64,-6934,24,2,4704,713,5288,477,6304,0,3,?
2017-03-27 15:03:26.451000,485,6824,-63,1200,-664,288,-536,952,138,1072,407,1016,4,6488,226,6648,1129,4704,-467,64,-6934,24,-37,4704,698,5288,458,6304,0,3,?
2017-03-27 15:03:26.460000,496,6824,-64,1200,-644,288,-522,952,151,1072,415,1016,-16,6488,201,6648,1106,4704,-440,64,-6934,24,-12,4704,707,5288,454,6304,-1,3,?
2017-03-27 15:03:26.465000,485,6824,-77,1200,-636,288,-518,952,140,1072,411,1016,-18,6488,224,6648,1108,4704,-388,64,-6934,24,23,4704,721,5288,440,6304,-1,3,?
2017-03-27 15:03:26.475000,465,6824,-74,1200,-661,288,-551,952,129,1072,361,1016,-38,6488,243,6648,1091,4704,-408,64,-6934,24,8,4704,713,5288,411,6304,-1,3,?
2017-03-27 15:03:26.482000,467,6824,-67,1200,-666,288,-532,952,142,1072,333,1016,-55,6488,240,6648,1105,4704,-407,64,-6934,24,6,4704,701,5288,406,6304,-2,4,?
2017-03-27 15:03:26.492000,498,6824,-62,1200,-636,288,-467,952,165,1072,385,1016,-12,6488,276,6648,1182,4704,-326,64,-6934,24,76,4704,754,5288,436,6304,-2,5,?
2017-03-27 15:03:26.497000,502,6824,-58,1200,-649,288,-493,952,165,1072,416,1016,1,6488,277,6648,1175,4704,-307,64,-6934,24,111,4704,762,5288,422,6304,-3,5,?
2017-03-27 15:03:26.506000,459,6824,-77,1200,-694,288,-537,952,150,1072,378,1016,-52,6488,213,6648,1084,4704,-355,64,-6934,24,93,4704,704,5288,367,6304,-3,6,?
2017-03-27 15:03:26.512000,443,6824,-77,1200,-712,288,-502,952,138,1072,381,1016,-51,6488,213,6648,1097,4704,-346,64,-6934,24,103,4704,701,5288,361,6304,-4,6,?
2017-03-27 15:03:26.521000,456,6824,-62,1200,-722,288,-478,952,136,1072,425,1016,-5,6488,270,6648,1173,4704,-306,64,-6934,24,122,4704,710,5288,370,6304,-4,6,?
2017-03-27 15:03:26.528000,440,6824,-72,1200,-740,288,-496,952,150,1072,428,1016,-11,6488,273,6648,1163,4704,-309,64,-6934,24,141,4704,706,5288,348,6304,-5,6,?
2017-03-27 15:03:26.538000,421,6824,-75,1200,-754,288,-501,952,159,1072,422,1016,-47,6488,246,6648,1183,4704,-329,64,-6934,24,154,4704,701,5288,333,6304,-5,5,?
2017-03-27 15:03:26.545000,449,6824,-69,1200,-742,288,-494,952,159,1072,439,1016,-32,6488,249,6648,1370,4704,-317,64,-6934,24,172,4704,718,5288,352,6304,-5,5,?
2017-03-27 15:03:26.552000,484,6824,-67,1200,-725,288,-505,952,149,1072,407,1016,20,6488,257,6648,1542,4704,-309,64,-6934,24,190,4704,753,5288,366,6304,-5,4,?
2017-03-27 15:03:26.560000,471,6824,-66,1200,-716,288,-520,952,130,1072,329,1016,28,6488,274,6648,1563,4704,-311,64,-6934,24,200,4704,746,5288,364,6304,-5,3,?
2017-03-27 15:03:26.568000,454,6824,-67,1200,-708,288,-515,952,122,1072,315,1016,-9,6488,285,6648,1555,4704,-305,64,-6934,24,258,4704,746,5288,374,6304,-5,3,?
2017-03-27 15:03:26.576000,469,6824,-64,1200,-692,288,-487,952,149,1072,397,1016,-15,6488,278,6648,1569,4704,-300,64,-6936,24,351,4704,768,5288,396,6304,-5,3,?
2017-03-27 15:03:26.584000,461,6824,-63,1200,-677,288,-481,952,165,1072,477,1016,4,6488,280,6648,1546,4704,-304,64,-6934,24,388,4704,752,5288,393,6304,-5,2,?
2017-03-27 15:03:26.593000,424,6824,-66,1200,-695,288,-511,952,141,1072,503,1016,-19,6488,264,6648,1491,4704,-327,64,-6931,24,369,4704,729,5288,370,6304,-5,2,?
2017-03-27 15:03:26.600000,417,6824,-65,1200,-717,288,-522,952,130,1072,535,1016,-28,6488,241,6648,1444,4704,-341,64,-6942,24,367,4704,732,5288,368,6304,-5,2,?
2017-03-27 15:03:26.609000,457,6824,-60,1200,-698,288,-507,952,147,1072,560,1016,24,6488,261,6648,1444,4704,-337,64,-6948,24,382,4704,752,5288,401,6304,-4,2,?
2017-03-27 15:03:26.621000,526,6824,-60,1200,-662,288,-484,952,156,1072,541,1016,38,6488,288,6648,1486,4704,-327,64,-6991,24,401,4704,766,5288,435,6304,-4,2,?
2017-03-27 15:03:26.625000,568,6824,-65,1200,-650,288,-484,952,152,1072,544,1016,-1,6488,269,6648,1461,4704,-298,64,-6906,24,464,4704,781,5288,456,6304,-3,2,?
2017-03-27 15:03:26.637000,529,6824,-61,1200,-654,288,-511,952,156,1072,571,1016,-8,6488,267,6648,1396,4704,-284,64,-6836,24,504,4704,799,5288,472,6304,-3,2,?
2017-03-27 15:03:26.638000,453,6824,-65,1200,-666,288,-513,952,165,1072,569,1016,14,6488,292,6648,1390,4704,-353,64,-7082,24,444,4704,767,5288,449,6304,-3,2,?
2017-03-27 15:03:26.647000,424,6824,-71,1200,-685,288,-500,952,154,1072,549,1016,-1,6488,268,6648,1367,4704,-373,64,-6605,24,377,4704,730,5288,414,6304,-2,2,?
2017-03-27 15:03:26.655000,428,6824,-62,1200,-693,288,-513,952,143,1072,537,1016,-32,6488,242,6648,1329,4704,-278,64,-5490,24,381,4704,735,5288,424,6304,-2,3,?
2017-03-27 15:03:26.663000,445,6824,-64,1200,-680,288,-504,952,165,1072,538,1016,-22,6488,266,6648,1371,4704,-273,64,-5693,24,398,4704,745,5288,448,6304,-2,3,?
2017-03-27 15:03:26.671000,465,6824,-70,1200,-663,288,-474,952,183,1072,535,1016,-3,6488,280,6648,1418,4704,-373,64,-6902,24,382,4704,759,5288,462,6304,-1,3,?
2017-03-27 15:03:26.679000,452,6824,-68,1200,-671,288,-495,952,182,1072,524,1016,-4,6488,256,6648,1382,4704,-390,64,-7132,24,358,4704,757,5288,462,6304,-1,3,?
2017-03-27 15:03:26.685000,437,6824,-65,1200,-697,288,-520,952,192,1072,525,1016,-3,6488,252,6648,1355,4704,-360,64,-6797,24,345,4704,754,5288,450,6304,-1,3,?
2017-03-27 15:03:26.694000,445,6824,-65,1200,-710,288,-506,952,199,1072,527,1016,-4,6488,260,6648,1350,4704,-397,64,-6953,24,300,4704,761,5288,450,6304,0,3,?
2017-03-27 15:03:26.701000,450,6824,-67,1200,-700,288,-502,952,193,1072,518,1016,0,6488,262,6648,1325,4704,-415,64,-7033,24,263,4704,762,5288,461,6304,0,3,?
2017-03-27 15:03:26.710000,449,6824,-63,1200,-692,288,-525,952,179,1072,506,1016,6,6488,261,6648,1289,4704,-401,64,-6932,24,261,4704,773,5288,460,6304,0,3,?
2017-03-27 15:03:26.717000,444,6824,-66,1200,-707,288,-544,952,160,1072,488,1016,-6,6488,249,6648,1233,4704,-426,64,-6934,24,243,4704,761,5288,446,6304,1,2,?
2017-03-27 15:03:26.726000,439,6824,-71,1200,-725,288,-532,952,167,1072,492,1016,-6,6488,252,6648,1182,4704,-443,64,-6938,24,276,4704,743,5288,440,6304,1,2,?
2017-03-27 15:03:26.733000,460,6824,-61,1200,-707,288,-515,952,191,1072,506,1016,5,6488,259,6648,1167,4704,-430,64,-6931,24,361,4704,766,5288,465,6304,1,1,?
2017-03-27 15:03:26.741000,470,6840,-60,1200,-683,288,-521,952,168,1072,483,1016,-21,6488,236,6648,1177,4704,-428,64,-6934,24,334,4704,774,5288,476,6304,1,1,?
2017-03-27 15:03:26.748000,443,6840,-69,1208,-698,288,-535,952,157,1072,479,1016,-28,6488,228,6648,1197,4704,-446,64,-6936,24,244,4704,763,5288,460,6304,2,0,?
2017-03-27 15:03:26.756000,456,6840,-60,1208,-692,288,-512,952,193,1072,532,1016,21,6488,255,6648,1203,4704,-431,64,-6936,24,271,4704,780,5288,474,6336,2,0,?
2017-03-27 15:03:26.766000,488,6840,-55,1208,-697,304,-494,952,176,1072,550,1016,29,6488,257,6648,1178,4704,-405,64,-6936,24,333,4704,804,5288,498,6336,2,-1,?
2017-03-27 15:03:26.772000,478,6840,-64,1208,-757,304,-516,928,146,1072,540,1016,7,6488,241,6648,1190,4704,-411,64,-6936,24,315,4704,799,5288,493,6336,2,-1,?
2017-03-27 15:03:26.780000,459,6840,-62,1208,-786,304,-531,928,179,1056,584,1016,26,6488,254,6648,1288,4704,-428,64,-6936,24,303,4704,790,5288,478,6336,2,-1,?
2017-03-27 15:03:26.787000,460,6840,-57,1208,-759,304,-532,928,192,1056,604,992,35,6488,251,6648,1384,4704,-437,64,-6938,24,329,4704,833,5288,475,6336,2,-1,?
2017-03-27 15:03:26.796000,471,6840,-57,1208,-735,304,-524,928,169,1056,573,992,21,6472,235,6648,1485,4704,-434,64,-7036,24,321,4704,876,5288,484,6336,3,-1,?
2017-03-27 15:03:26.804000,484,6840,-60,1208,-710,304,-500,928,181,1056,595,992,42,6472,264,6648,1612,4704,-432,64,-7434,24,297,4704,876,5288,500,6336,3,-1,?
2017-03-27 15:03:26.811000,489,6840,-62,1208,-684,304,-487,928,192,1056,633,992,69,6472,306,6648,1684,4712,-432,64,-7372,24,319,4704,885,5288,511,6336,3,-1,?
2017-03-27 15:03:26.818000,461,6840,-63,1208,-692,304,-510,928,157,1056,601,992,40,6472,288,6648,1695,4712,-428,200,-6954,24,326,4704,873,5288,497,6336,3,-1,?
2017-03-27 15:03:26.828000,448,6840,-64,1208,-699,304,-537,928,139,1056,568,992,15,6472,256,6648,1720,4712,-460,200,-7730,0,288,4704,858,5288,490,6336,4,-1,?
2017-03-27 15:03:26.835000,470,6840,-58,1208,-673,304,-529,928,157,1056,578,992,22,6472,263,6648,1704,4712,-422,200,-6253,0,244,4720,868,5288,507,6336,4,-1,?
2017-03-27 15:03:26.843000,463,6840,-64,1208,-663,304,-512,928,172,1056,566,992,9,6472,270,6648,1623,4712,-127,200,581,0,184,4720,861,5328,509,6336,4,-1,?
2017-03-27 15:03:26.850000,459,6840,-77,1208,-658,304,-505,928,168,1056,556,992,-1,6472,269,6648,1633,4712,253,192,6863,0,105,4720,852,5328,509,6336,5,-1,?
2017-03-27 15:03:26.858000,482,6840,-44,1208,-660,304,-505,928,154,1056,572,992,26,6472,286,6648,1699,4712,379,192,7639,0,78,4720,818,5328,524,6336,5,-2,?
2017-03-27 15:03:26.865000,461,6840,-70,1208,-696,304,-517,928,161,1056,570,992,42,6472,301,6648,1642,4712,326,192,6900,0,148,4720,753,5328,501,6336,6,-2,?
2017-03-27 15:03:26.875000,429,6840,-113,1208,-706,304,-537,928,187,1056,594,992,33,6472,285,6648,1571,4712,323,192,7434,0,211,4720,709,5328,485,6336,7,-3,?
2017-03-27 15:03:26.881000,478,6840,38,1208,-669,304,-546,928,182,1056,626,992,38,6472,262,6648,1633,4712,335,192,7410,0,202,4720,723,5328,570,6336,7,-3,?
2017-03-27 15:03:26.891000,489,6840,11,1208,-609,304,-516,928,174,1056,579,992,38,6472,283,6648,1732,4712,338,192,6995,0,196,4720,738,5328,609,6336,8,-3,?
2017-03-27 15:03:26.897000,451,6840,-148,1208,-562,304,-514,928,174,1056,515,992,10,6472,293,6648,1730,4712,340,192,6950,0,205,4720,711,5328,598,6336,8,-3,?
2017-03-27 15:03:26.905000,504,6840,-57,1208,-522,304,-557,928,149,1056,529,992,-7,6472,241,6648,1651,4712,333,192,6948,0,211,4720,730,5328,686,6336,9,-3,?
2017-03-27 15:03:26.912000,536,6840,-33,1208,-474,304,-567,928,136,1056,575,992,2,6472,213,6648,1602,4712,358,192,6947,0,217,4720,760,5328,751,6336,9,-3,?
2017-03-27 15:03:26.920000,503,6840,-82,1208,-446,304,-567,928,123,1056,558,992,-13,6472,208,6648,1625,4712,360,192,6944,0,189,4720,727,5328,752,6336,10,-3,?
2017-03-27 15:03:26.928000,507,6840,-56,1208,-415,304,-568,928,111,1056,526,992,-41,6472,177,6648,1695,4712,328,192,6946,0,164,4720,722,5328,786,6336,10,-4,?
2017-03-27 15:03:26.936000,546,6840,-55,1208,-381,304,-547,928,137,1056,533,992,-33,6472,172,6648,1727,4712,334,192,6942,0,183,4720,754,5328,835,6336,11,-4,?
2017-03-27 15:03:26.943000,577,6840,-55,1208,-401,304,-557,928,131,1056,525,992,-27,6472,185,6648,1674,4712,351,192,6946,0,202,4720,763,5328,868,6336,12,-4,?
2017-03-27 15:03:26.951000,571,6840,-54,1208,-488,304,-591,928,101,1056,501,992,-49,6472,163,6648,1599,4712,337,192,6946,0,186,4720,751,5328,882,6336,12,-4,?
2017-03-27 15:03:26.958000,581,6840,-46,1208,-543,304,-574,928,138,1056,499,992,-60,6472,141,6648,1557,4712,336,192,6946,0,182,4720,759,5328,916,6336,12,-4,?
2017-03-27 15:03:26.968000,616,6840,-50,1208,-546,304,-535,928,167,1056,508,992,-42,6472,147,6648,1520,4712,363,192,6945,0,220,4720,795,5328,956,6336,13,-4,?
2017-03-27 15:03:26.977000,633,6840,-45,1208,-577,304,-550,928,109,1056,490,992,-41,6472,149,6648,1469,4712,380,192,6945,0,237,4720,803,5328,972,6336,13,-4,?
2017-03-27 15:03:26.984000,634,6840,-47,1208,-613,304,-574,928,91,1056,473,992,-58,6472,155,6648,1447,4712,392,192,6945,0,227,4720,796,5328,983,6336,13,-4,?
2017-03-27 15:03:26.991000,639,6840,-48,1208,-630,304,-557,928,137,1056,488,992,-58,6472,169,6648,1485,4712,380,192,6945,0,208,4720,813,5328,982,6336,13,-4,?
2017-03-27 15:03:26.999000,638,6840,-40,1208,-668,304,-554,928,152,1056,498,992,-46,6472,168,6648,1548,4712,337,192,6945,0,208,4720,801,5328,960,6336,13,-5,?
2017-03-27 15:03:27.007000,617,6840,-58,1208,-718,304,-570,928,137,1056,489,992,-36,6472,167,6648,1595,4712,314,192,6945,0,243,4720,778,5328,935,6336,13,-5,?
2017-03-27 15:03:27.015000,615,6840,-51,1208,-748,304,-551,928,120,1056,463,992,-32,6472,172,6648,1613,4712,310,192,6945,0,246,4720,785,5328,935,6336,13,-5,?
2017-03-27 15:03:27.023000,640,6840,-48,1208,-751,304,-520,928,122,1056,448,992,-44,6472,173,6648,1578,4712,308,192,6945,0,331,4720,799,5328,949,6336,13,-5,?
2017-03-27 15:03:27.030000,648,6840,-56,1208,-754,304,-532,928,143,1056,453,992,-83,6472,159,6648,1481,4712,302,192,6945,0,562,4720,801,5328,937,6336,13,-6,?
2017-03-27 15:03:27.038000,622,6840,-51,1208,-789,304,-559,928,151,1056,464,992,-93,6472,146,6648,1375,4712,266,192,6945,0,652,4720,768,5328,899,6336,12,-6,?
2017-03-27 15:03:27.045000,605,6840,-58,1208,-832,304,-542,928,166,1056,486,992,-51,6472,155,6648,1334,4712,232,192,6945,0,595,4720,748,5328,880,6336,12,-6,?
2017-03-27 15:03:27.053000,620,6840,-52,1208,-849,304,-511,928,185,1056,509,992,-47,6472,158,6648,1335,4712,219,192,6945,0,646,4720,765,5328,874,6336,12,-6,?
2017-03-27 15:03:27.061000,613,6840,-61,1208,-882,304,-511,928,162,1056,503,992,-102,6472,134,6648,1312,4712,175,192,6945,0,708,4720,758,5328,833,6336,12,-6,?
2017-03-27 15:03:27.069000,586,6840,-64,1208,-937,304,-531,928,127,1056,472,992,-129,6472,114,6648,1250,4712,138,192,6945,0,645,4720,746,5328,794,6336,12,-5,?
2017-03-27 15:03:27.077000,588,6840,-48,1208,-957,304,-555,928,127,1056,465,992,-115,6472,120,6648,1214,4712,160,192,6945,0,607,4720,757,5328,806,6336,11,-5,?
2017-03-27 15:03:27.084000,601,6840,-63,1208,-957,304,-562,928,138,1056,491,992,-97,6472,144,6648,1238,4712,188,192,6945,0,633,4720,784,5328,815,6336,11,-5,?
2017-03-27 15:03:27.092000,596,6840,-60,1208,-983,304,-553,928,128,1056,510,992,-79,6472,160,6648,1219,4712,173,192,6945,0,621,4720,779,5328,790,6336,11,-5,?
2017-03-27 15:03:27.100000,576,6840,-57,1208,-1018,304,-551,928,122,1056,498,992,-74,6472,157,6648,1163,4712,159,192,6945,0,593,4720,736,5328,766,6336,10,-5,?
2017-03-27 15:03:27.109000,570,6840,-66,1208,-1028,304,-546,928,132,1056,478,992,-59,6472,162,6648,1192,4712,173,192,6945,0,592,4720,753,5328,774,6336,10,-5,?
2017-03-27 15:03:27.115000,598,6840,-57,1208,-1023,304,-535,928,138,1056,472,992,-35,6472,173,6648,1258,4712,191,192,6945,0,597,4720,803,5328,795,6336,10,-5,?
2017-03-27 15:03:27.123000,599,6840,-69,1208,-1054,304,-545,928,130,1056,456,992,-61,6472,138,6648,1243,4712,181,192,6945,0,584,4720,795,5328,775,6336,10,-5,?
2017-03-27 15:03:27.131000,568,6840,-69,1208,-1107,304,-562,928,116,1056,450,992,-110,6472,90,6648,1185,4712,143,192,6945,0,553,4720,769,5328,732,6336,9,-5,?
