Timestamp,F3 Value,F3 Quality,FC5 Value,FC5 Quality,F7 Value,F7 Quality,T7 Value,T7 Quality,P7 Value,P7 Quality,O1 Value,O1 Quality,O2 Value,O2 Quality,P8 Value,P8 Quality,T8 Value,T8 Quality,F8 Value,F8 Quality,AF4 Value,AF4 Quality,FC6 Value,FC6 Quality,F4 Value,F4 Quality,AF3 Value,AF3 Quality,X Value,Y Value,Z Value
2017-03-21 14:13:33.731000,617,0,13,0,-576,0,-615,0,110,0,475,0,-257,0,248,0,1512,0,-25,0,413,0,-44,0,1197,0,524,0,2,-1,?
2017-03-21 14:13:33.738000,620,0,9,0,-579,0,-611,0,112,0,475,0,-252,0,252,0,1514,0,-16,0,422,0,-37,0,1199,0,526,0,2,-1,?
2017-03-21 14:13:33.745000,605,0,-1,0,-579,0,-613,0,112,0,464,0,-268,0,225,0,1494,0,-38,0,402,0,-57,0,1192,0,528,0,2,-1,?
2017-03-21 14:13:33.753000,600,0,3,0,-577,0,-616,0,110,0,465,0,-270,0,225,0,1493,0,-48,0,396,0,-63,0,1187,0,524,0,2,-1,?
2017-03-21 14:13:33.761000,607,0,11,0,-580,0,-613,0,114,0,469,0,-260,0,245,0,1505,0,-32,0,409,0,-50,0,1197,0,521,0,2,-1,?
2017-03-21 14:13:33.769000,610,0,11,0,-579,0,-609,0,119,0,468,0,-261,0,238,0,1500,0,-22,0,415,0,-44,0,1202,0,524,0,2,-1,?
2017-03-21 14:13:33.777000,607,0,6,0,-578,0,-613,0,116,0,467,0,-268,0,226,0,1492,0,-36,0,402,0,-53,0,1188,0,524,0,2,-1,?
2017-03-21 14:13:33.784000,606,0,4,0,-580,0,-620,0,109,0,467,0,-271,0,225,0,1494,0,-50,0,393,0,-62,0,1183,0,524,0,2,-1,?
2017-03-21 14:13:33.792000,608,0,5,0,-581,0,-618,0,114,0,465,0,-261,0,234,0,1502,0,-37,0,400,0,-55,0,1193,0,528,0,2,-1,?
2017-03-21 14:13:33.800000,612,0,6,0,-580,0,-613,0,119,0,467,0,-250,0,245,0,1507,0,-16,0,417,0,-40,0,1204,0,528,0,2,-1,?
2017-03-21 14:13:33.808000,613,0,6,0,-582,0,-614,0,110,0,469,0,-259,0,244,0,1505,0,-20,0,416,0,-43,0,1202,0,525,0,2,-1,?
2017-03-21 14:13:33.816000,607,0,4,0,-582,0,-619,0,108,0,464,0,-274,0,230,0,1496,0,-43,0,394,0,-64,0,1186,0,522,0,2,-1,?
2017-03-21 14:13:33.824000,606,0,6,0,-584,0,-618,0,115,0,463,0,-275,0,219,0,1488,0,-53,0,387,0,-72,0,1182,0,521,0,2,-1,?
2017-03-21 14:13:33.831000,610,0,10,0,-589,0,-609,0,116,0,470,0,-262,0,233,0,1497,0,-39,0,406,0,-55,0,1196,0,521,0,2,-1,?
2017-03-21 14:13:33.840000,613,0,9,0,-581,0,-609,0,115,0,472,0,-246,0,253,0,1518,0,-18,0,428,0,-35,0,1209,0,524,0,2,-1,?
2017-03-21 14:13:33.847000,612,0,8,0,-567,0,-616,0,114,0,469,0,-254,0,244,0,1514,0,-18,0,421,0,-38,0,1206,0,526,0,2,-1,?
2017-03-21 14:13:33.856000,609,0,6,0,-576,0,-619,0,111,0,473,0,-274,0,218,0,1485,0,-43,0,386,0,-64,0,1187,0,521,0,2,-1,?
2017-03-21 14:13:33.863000,606,0,1,0,-587,0,-616,0,111,0,470,0,-280,0,208,0,1476,0,-58,0,377,0,-78,0,1179,0,520,0,2,-1,?
2017-03-21 14:13:33.871000,612,0,2,0,-579,0,-611,0,113,0,467,0,-261,0,231,0,1501,0,-35,0,407,0,-55,0,1192,0,523,0,2,-1,?
2017-03-21 14:13:33.879000,614,0,6,0,-574,0,-611,0,114,0,472,0,-244,0,253,0,1518,0,-11,0,428,0,-29,0,1205,0,530,0,2,-1,?
2017-03-21 14:13:33.887000,608,0,7,0,-578,0,-618,0,112,0,470,0,-262,0,238,0,1500,0,-30,0,412,0,-41,0,1200,0,530,0,2,-1,?
2017-03-21 14:13:33.894000,605,0,6,0,-583,0,-616,0,110,0,465,0,-281,0,216,0,1483,0,-57,0,385,0,-66,0,1186,0,523,0,2,-1,?
2017-03-21 14:13:33.903000,607,0,8,0,-581,0,-609,0,110,0,469,0,-267,0,227,0,1492,0,-43,0,393,0,-60,0,1189,0,523,0,2,-1,?
2017-03-21 14:13:33.911000,609,0,7,0,-577,0,-607,0,114,0,467,0,-251,0,245,0,1510,0,-18,0,418,0,-38,0,1200,0,525,0,2,-1,?
2017-03-21 14:13:33.918000,609,0,4,0,-574,0,-613,0,114,0,462,0,-260,0,243,0,1512,0,-24,0,413,0,-43,0,1199,0,527,0,2,-1,?
2017-03-21 14:13:33.926000,608,0,7,0,-577,0,-616,0,113,0,468,0,-277,0,224,0,1498,0,-46,0,393,0,-63,0,1192,0,530,0,2,-1,?
2017-03-21 14:13:33.933000,605,0,8,0,-577,0,-613,0,117,0,470,0,-263,0,227,0,1499,0,-43,0,399,0,-56,0,1192,0,528,0,2,-1,?
2017-03-21 14:13:33.941000,609,0,6,0,-573,0,-614,0,120,0,466,0,-247,0,244,0,1509,0,-24,0,422,0,-37,0,1199,0,525,0,2,-1,?
2017-03-21 14:13:33.949000,612,0,9,0,-575,0,-618,0,118,0,467,0,-259,0,241,0,1505,0,-20,0,425,0,-39,0,1199,0,526,0,2,-1,?
2017-03-21 14:13:33.957000,603,0,7,0,-576,0,-615,0,114,0,469,0,-277,0,223,0,1493,0,-39,0,401,0,-57,0,1187,0,526,0,2,-1,?
2017-03-21 14:13:33.964000,600,0,5,0,-574,0,-613,0,111,0,469,0,-277,0,221,0,1490,0,-56,0,386,0,-68,0,1185,0,521,0,2,-1,?
2017-03-21 14:13:33.972000,612,0,6,0,-577,0,-614,0,110,0,468,0,-261,0,238,0,1502,0,-39,0,400,0,-60,0,1193,0,520,0,2,-1,?
2017-03-21 14:13:33.980000,618,0,7,0,-578,0,-616,0,113,0,470,0,-246,0,251,0,1514,0,-9,0,422,0,-40,0,1201,0,521,0,2,-1,?
2017-03-21 14:13:33.988000,613,0,8,0,-577,0,-616,0,110,0,471,0,-249,0,245,0,1508,0,-15,0,419,0,-38,0,1205,0,519,0,2,-1,?
2017-03-21 14:13:33.996000,605,0,10,0,-581,0,-611,0,108,0,466,0,-265,0,229,0,1489,0,-48,0,393,0,-59,0,1185,0,519,0,2,-1,?
2017-03-21 14:13:34.003000,601,0,10,0,-578,0,-609,0,114,0,464,0,-279,0,215,0,1483,0,-58,0,380,0,-76,0,1175,0,520,0,2,-1,?
2017-03-21 14:13:34.011000,605,0,7,0,-573,0,-612,0,112,0,466,0,-269,0,227,0,1498,0,-33,0,395,0,-63,0,1195,0,520,0,2,-1,?
2017-03-21 14:13:34.020000,614,0,5,0,-579,0,-612,0,107,0,468,0,-245,0,255,0,1516,0,-10,0,422,0,-34,0,1210,0,525,0,2,-1,?
2017-03-21 14:13:34.028000,614,0,4,0,-584,0,-611,0,116,0,471,0,-250,0,253,0,1509,0,-17,0,426,0,-34,0,1204,0,526,0,2,-1,?
2017-03-21 14:13:34.036000,604,0,4,0,-582,0,-614,0,121,0,471,0,-277,0,220,0,1486,0,-47,0,397,0,-63,0,1189,0,521,0,2,-1,?
2017-03-21 14:13:34.043000,604,0,7,0,-581,0,-620,0,114,0,466,0,-282,0,209,0,1479,0,-58,0,385,0,-72,0,1186,0,522,0,2,-1,?
2017-03-21 14:13:34.050000,611,0,9,0,-581,0,-616,0,111,0,464,0,-257,0,239,0,1498,0,-31,0,412,0,-47,0,1197,0,525,0,2,-1,?
2017-03-21 14:13:34.059000,615,0,8,0,-578,0,-609,0,111,0,467,0,-246,0,256,0,1516,0,-13,0,423,0,-33,0,1206,0,525,0,2,-1,?
2017-03-21 14:13:34.067000,610,0,6,0,-575,0,-612,0,116,0,468,0,-267,0,230,0,1502,0,-32,0,403,0,-52,0,1201,0,523,0,2,-1,?
2017-03-21 14:13:34.075000,603,0,8,0,-582,0,-614,0,116,0,466,0,-279,0,217,0,1489,0,-48,0,395,0,-66,0,1190,0,517,0,2,-1,?
2017-03-21 14:13:34.083000,607,0,7,0,-585,0,-613,0,111,0,468,0,-267,0,235,0,1505,0,-36,0,411,0,-51,0,1196,0,518,0,2,-1,?
2017-03-21 14:13:34.090000,616,0,4,0,-579,0,-615,0,113,0,467,0,-257,0,242,0,1514,0,-22,0,415,0,-40,0,1205,0,525,0,2,-1,?
2017-03-21 14:13:34.098000,614,24,5,0,-579,0,-614,0,117,0,467,0,-263,0,231,0,1500,0,-29,0,397,0,-53,0,1195,0,524,0,2,-1,?
2017-03-21 14:13:34.106000,603,24,11,8,-580,0,-612,0,111,0,473,0,-276,0,222,0,1490,0,-45,0,389,0,-68,0,1188,0,523,0,2,-1,?
2017-03-21 14:13:34.114000,600,24,9,8,-573,0,-614,0,110,0,472,0,-267,0,230,0,1501,0,-39,0,399,0,-58,0,1192,0,526,0,2,-1,?
2017-03-21 14:13:34.122000,611,24,6,8,-569,16,-608,0,117,0,466,0,-248,0,247,0,1513,0,-19,0,417,0,-40,0,1199,0,521,0,2,-1,?
2017-03-21 14:13:34.130000,615,24,9,8,-577,16,-607,0,116,0,468,0,-248,0,251,0,1511,0,-23,0,420,0,-43,0,1203,0,519,0,2,-1,?
2017-03-21 14:13:34.137000,606,24,6,8,-580,16,-620,0,115,8,469,0,-264,0,234,0,1495,0,-43,0,398,0,-61,0,1193,0,520,0,2,-1,?
2017-03-21 14:13:34.145000,604,24,6,8,-573,16,-623,0,112,8,466,16,-278,0,216,0,1478,0,-52,0,387,0,-75,0,1181,0,518,0,2,-1,?
2017-03-21 14:13:34.152000,613,24,9,8,-571,16,-613,0,111,8,470,16,-270,16,227,0,1491,0,-39,0,400,0,-62,0,1187,0,523,0,2,-1,?
2017-03-21 14:13:34.161000,618,24,6,8,-575,16,-609,0,113,8,474,16,-243,16,255,16,1520,0,-15,0,420,0,-38,0,1204,0,529,0,2,-1,?
2017-03-21 14:13:34.168000,608,24,5,8,-577,16,-613,0,112,8,470,16,-242,16,255,16,1520,16,-19,0,424,0,-37,0,1206,0,527,0,2,-1,?
2017-03-21 14:13:34.175000,596,24,6,8,-577,16,-617,0,111,8,466,16,-272,16,227,16,1496,16,-45,16,395,0,-64,0,1190,0,522,0,2,-1,?
2017-03-21 14:13:34.184000,601,24,5,8,-576,16,-619,0,115,8,466,16,-285,16,210,16,1481,16,-49,16,382,16,-77,0,1183,0,518,0,2,-1,?
2017-03-21 14:13:34.191000,614,24,7,8,-577,16,-614,0,115,8,466,16,-268,16,226,16,1494,16,-25,16,412,16,-52,16,1197,0,521,0,2,-1,?
2017-03-21 14:13:34.199000,616,24,9,8,-577,16,-609,0,112,8,472,16,-247,16,254,16,1516,16,-8,16,432,16,-29,16,1208,0,526,0,2,-1,?
2017-03-21 14:13:34.207000,609,24,5,8,-578,16,-615,0,111,8,473,16,-250,16,252,16,1508,16,-24,8,410,16,-42,16,1204,0,520,0,2,-1,?
2017-03-21 14:13:34.215000,600,24,1,8,-579,16,-616,0,111,8,466,16,-273,16,223,16,1484,16,-47,8,387,16,-69,16,1191,0,514,0,2,-1,?
2017-03-21 14:13:34.222000,601,24,5,8,-577,16,-611,0,116,8,473,16,-277,16,220,16,1488,16,-42,8,396,16,-67,8,1186,0,521,0,2,-1,?
2017-03-21 14:13:34.230000,613,24,6,8,-579,16,-612,0,116,8,475,16,-249,16,247,16,1512,16,-21,8,415,16,-43,8,1197,0,523,0,2,-1,?
2017-03-21 14:13:34.239000,616,24,5,8,-576,16,-615,0,110,8,466,16,-241,16,250,16,1513,16,-25,8,415,16,-44,8,1200,0,522,0,2,-1,?
2017-03-21 14:13:34.246000,607,24,5,8,-577,16,-618,0,109,8,466,16,-271,16,225,16,1499,16,-44,8,397,16,-63,8,1189,0,521,0,2,-1,?
2017-03-21 14:13:34.254000,604,24,6,8,-583,16,-620,0,114,8,471,16,-276,16,225,16,1499,16,-37,8,402,16,-59,8,1193,0,519,0,2,-1,?
2017-03-21 14:13:34.262000,608,24,7,8,-579,16,-617,0,118,8,473,16,-252,16,247,16,1507,16,-22,8,416,16,-49,8,1201,0,524,0,2,-1,?
2017-03-21 14:13:34.269000,613,24,5,8,-575,16,-613,0,113,8,465,16,-248,16,251,16,1510,16,-30,8,405,16,-52,8,1196,0,525,0,2,-1,?
2017-03-21 14:13:34.277000,610,24,3,8,-576,16,-615,0,111,8,465,16,-268,16,234,16,1501,16,-40,8,398,16,-60,8,1190,0,522,0,2,-1,?
2017-03-21 14:13:34.285000,607,24,4,8,-575,16,-612,0,114,8,474,16,-280,16,217,16,1491,16,-41,8,393,16,-69,8,1185,0,521,0,2,-1,?
2017-03-21 14:13:34.293000,612,24,9,8,-577,16,-611,0,108,8,468,16,-265,16,222,16,1499,16,-33,8,398,16,-57,8,1190,0,520,0,2,-1,?
2017-03-21 14:13:34.301000,613,24,8,8,-574,16,-617,0,109,8,464,16,-245,16,243,16,1514,16,-19,8,419,16,-36,8,1205,0,526,0,2,-1,?
2017-03-21 14:13:34.308000,610,24,3,8,-578,16,-618,0,115,8,473,16,-249,16,249,16,1515,16,-22,8,415,16,-44,8,1205,0,527,0,2,-1,?
2017-03-21 14:13:34.316000,609,24,8,8,-579,16,-612,0,112,8,469,16,-270,16,233,16,1497,16,-42,8,395,16,-64,8,1193,0,519,0,2,-1,?
2017-03-21 14:13:34.324000,603,24,10,8,-570,16,-615,0,109,8,460,16,-283,16,211,16,1478,16,-49,8,395,16,-69,8,1183,0,521,0,2,-1,?
2017-03-21 14:13:34.332000,607,24,5,8,-572,16,-618,0,110,8,460,16,-265,16,225,16,1490,16,-26,8,408,16,-53,8,1192,0,524,0,2,-1,?
2017-03-21 14:13:34.340000,615,24,8,8,-577,16,-613,0,111,8,469,16,-242,16,257,16,1518,16,-4,8,429,16,-32,8,1212,0,521,0,2,-1,?
2017-03-21 14:13:34.348000,609,24,10,8,-575,16,-609,0,112,8,473,16,-247,16,256,16,1514,16,-17,8,425,16,-36,8,1207,0,520,0,2,-1,?
2017-03-21 14:13:34.355000,602,24,3,8,-573,16,-615,0,110,8,464,16,-271,16,226,16,1488,16,-43,8,394,16,-62,8,1183,0,521,0,2,-1,?
2017-03-21 14:13:34.363000,603,24,2,8,-574,16,-620,0,112,8,465,16,-284,16,217,16,1481,16,-45,8,387,16,-72,8,1186,0,522,0,2,-1,?
2017-03-21 14:13:34.371000,607,24,6,8,-576,16,-615,0,117,8,474,16,-262,16,242,16,1504,16,-26,8,411,16,-51,8,1210,0,522,0,2,-1,?
2017-03-21 14:13:34.379000,608,24,10,8,-576,16,-614,0,118,8,473,16,-244,16,256,16,1521,16,-19,8,421,16,-41,8,1211,0,522,0,2,-1,?
2017-03-21 14:13:34.387000,606,24,9,8,-574,16,-619,0,113,8,469,16,-258,16,235,16,1504,16,-35,8,403,16,-56,8,1194,0,522,0,2,-1,?
2017-03-21 14:13:34.395000,606,24,3,8,-576,16,-620,0,109,8,467,16,-270,16,217,16,1487,16,-43,8,388,16,-67,8,1188,0,520,0,2,-1,?
2017-03-21 14:13:34.403000,607,24,5,8,-575,16,-617,0,116,8,470,16,-262,16,230,16,1498,16,-32,8,402,16,-60,8,1194,0,523,0,2,-1,?
2017-03-21 14:13:34.411000,608,24,12,8,-572,16,-615,0,123,8,472,16,-255,16,245,16,1512,16,-23,8,414,16,-48,8,1201,0,526,0,2,-1,?
2017-03-21 14:13:34.418000,609,24,8,8,-576,16,-616,0,114,8,471,16,-260,16,235,16,1504,16,-28,8,402,16,-53,8,1195,0,524,0,2,-1,?
2017-03-21 14:13:34.427000,611,24,4,8,-581,16,-614,0,106,8,467,16,-272,16,220,16,1490,16,-39,8,393,16,-65,8,1189,0,522,0,2,-1,?
2017-03-21 14:13:34.434000,612,24,8,8,-582,16,-612,0,111,8,465,16,-266,16,230,16,1497,16,-32,8,404,16,-57,8,1195,0,522,0,2,-1,?
2017-03-21 14:13:34.441000,611,24,7,8,-576,16,-615,0,115,8,472,16,-247,16,246,16,1515,16,-21,8,415,16,-42,8,1202,0,525,0,2,-1,?
2017-03-21 14:13:34.449000,608,24,1,8,-576,16,-617,0,115,8,472,16,-248,16,242,16,1512,16,-28,8,408,16,-48,8,1196,0,525,0,2,-1,?
2017-03-21 14:13:34.458000,607,24,-2,8,-579,16,-615,0,113,8,464,16,-265,16,231,16,1494,16,-43,8,392,16,-63,8,1187,0,522,0,2,-1,?
2017-03-21 14:13:34.466000,608,24,4,8,-578,16,-616,0,113,8,465,16,-276,16,218,16,1486,16,-46,8,394,16,-68,8,1189,0,525,0,2,-1,?
2017-03-21 14:13:34.473000,610,24,11,8,-581,16,-615,0,120,8,471,16,-264,16,230,16,1498,16,-30,8,411,16,-58,8,1195,0,525,0,2,-1,?
2017-03-21 14:13:34.481000,617,24,10,8,-583,16,-613,0,121,8,471,16,-247,16,260,16,1515,16,-13,8,426,16,-40,8,1204,0,525,0,2,-1,?
2017-03-21 14:13:34.488000,615,24,7,8,-579,16,-615,0,112,8,467,16,-255,16,255,16,1511,16,-22,8,418,16,-43,8,1202,0,526,0,2,-1,?
2017-03-21 14:13:34.497000,603,24,7,8,-583,16,-616,0,110,8,465,16,-274,16,224,16,1491,16,-45,8,393,16,-65,8,1186,0,521,0,2,-1,?
2017-03-21 14:13:34.505000,603,24,10,8,-583,16,-618,0,114,8,467,16,-279,16,213,16,1483,16,-50,8,387,16,-75,8,1185,0,518,0,2,-1,?
2017-03-21 14:13:34.512000,608,24,9,8,-576,16,-619,0,109,8,467,16,-259,16,232,16,1503,16,-33,8,407,16,-55,8,1200,0,520,0,2,-1,?
2017-03-21 14:13:34.520000,609,24,6,8,-576,16,-611,0,107,8,469,16,-236,16,255,16,1524,16,-18,8,421,16,-35,8,1205,0,524,0,2,-1,?
2017-03-21 14:13:34.527000,610,24,8,8,-578,16,-613,0,112,8,469,16,-243,16,250,16,1514,16,-30,8,414,16,-50,8,1199,0,522,0,2,-1,?
2017-03-21 14:13:34.535000,607,24,10,8,-577,16,-619,0,112,8,466,16,-266,16,221,16,1489,16,-51,8,392,16,-76,8,1190,0,520,0,2,-1,?
2017-03-21 14:13:34.543000,606,24,10,8,-577,16,-617,0,110,8,467,16,-269,16,214,16,1489,16,-46,8,390,16,-68,8,1191,0,523,0,2,-1,?
2017-03-21 14:13:34.551000,612,24,10,8,-579,16,-613,0,114,8,469,16,-247,16,239,16,1510,16,-26,8,417,16,-42,8,1203,0,523,0,2,-1,?
2017-03-21 14:13:34.559000,614,24,10,8,-581,16,-612,0,116,8,470,16,-237,16,248,16,1511,16,-25,8,423,16,-42,8,1201,0,521,0,2,-1,?
2017-03-21 14:13:34.566000,606,24,6,8,-581,16,-610,0,111,8,474,16,-259,16,225,16,1497,16,-38,8,397,16,-60,8,1191,0,525,0,2,-1,?
2017-03-21 14:13:34.575000,604,24,4,8,-581,16,-608,0,111,8,473,16,-272,16,223,16,1499,16,-36,8,390,16,-60,8,1189,0,528,0,2,-1,?
2017-03-21 14:13:34.583000,610,24,7,8,-582,16,-613,0,116,8,473,16,-257,16,241,16,1508,16,-27,8,413,16,-47,8,1194,0,529,0,2,-1,?
2017-03-21 14:13:34.591000,609,24,8,8,-581,16,-617,0,115,8,474,16,-254,16,236,16,1506,16,-27,8,420,16,-47,8,1199,0,524,0,2,-1,?
2017-03-21 14:13:34.598000,606,24,8,8,-575,16,-614,0,111,8,469,16,-267,16,228,16,1498,16,-32,8,404,16,-61,8,1196,0,520,0,2,-1,?
2017-03-21 14:13:34.606000,605,16,8,8,-575,16,-610,0,111,8,466,16,-272,16,229,16,1490,16,-39,8,396,16,-69,8,1190,0,521,0,2,-1,?
2017-03-21 14:13:34.614000,606,16,7,0,-582,16,-608,0,113,8,468,16,-261,16,239,16,1501,16,-36,8,404,16,-53,8,1190,0,523,0,2,-1,?
2017-03-21 14:13:34.621000,611,16,8,0,-581,16,-614,0,113,8,471,16,-251,16,248,16,1516,16,-23,8,420,16,-33,8,1199,0,526,24,2,-1,?
2017-03-21 14:13:34.630000,612,16,10,0,-576,0,-618,0,114,8,472,16,-259,16,242,16,1506,16,-22,8,419,16,-41,8,1196,0,524,24,2,-1,?
2017-03-21 14:13:34.638000,603,16,8,0,-579,0,-612,8,118,8,469,16,-272,16,227,16,1490,16,-40,8,394,16,-67,8,1183,0,518,24,2,-1,?
2017-03-21 14:13:34.646000,600,16,5,0,-585,0,-615,8,114,16,466,16,-276,16,213,16,1487,16,-51,8,381,16,-74,8,1182,0,521,24,2,-1,?
2017-03-21 14:13:34.652000,611,16,7,0,-583,0,-622,8,109,16,470,16,-262,16,229,16,1500,16,-40,8,401,16,-55,8,1194,0,521,24,2,-1,?
2017-03-21 14:13:34.660000,618,16,10,0,-573,0,-615,8,114,16,473,16,-247,8,254,16,1517,16,-19,8,422,16,-40,8,1204,0,519,24,2,-1,?
2017-03-21 14:13:34.668000,612,16,7,0,-571,0,-605,8,118,16,467,16,-255,8,247,24,1512,16,-21,8,417,16,-47,8,1199,0,526,24,2,-1,?
2017-03-21 14:13:34.677000,604,16,4,0,-584,0,-609,8,112,16,460,16,-275,8,219,24,1489,0,-50,8,389,16,-67,8,1185,0,530,24,2,-1,?
2017-03-21 14:13:34.684000,608,16,4,0,-586,0,-614,8,111,16,464,16,-279,8,216,24,1483,0,-62,0,379,16,-73,8,1182,0,523,24,2,-1,?
2017-03-21 14:13:34.692000,613,16,7,0,-575,0,-612,8,112,16,472,16,-259,8,241,24,1499,0,-34,0,402,0,-53,8,1192,0,519,24,2,-1,?
2017-03-21 14:13:34.700000,610,16,8,0,-574,0,-612,8,109,16,470,16,-247,8,254,24,1512,0,-13,0,418,0,-35,16,1204,0,523,24,2,-1,?
2017-03-21 14:13:34.708000,607,16,7,0,-579,0,-616,8,112,16,466,16,-263,8,236,24,1499,0,-34,0,401,0,-49,16,1203,16,526,24,2,-1,?
2017-03-21 14:13:34.716000,608,16,6,0,-579,0,-617,8,114,16,469,16,-276,8,217,24,1485,0,-55,8,379,0,-73,16,1188,16,519,24,2,-1,?
2017-03-21 14:13:34.724000,610,16,4,0,-573,0,-615,8,111,16,466,16,-269,8,231,24,1497,0,-37,8,398,16,-60,16,1190,16,516,24,2,-1,?
2017-03-21 14:13:34.731000,611,16,6,0,-572,0,-606,8,117,16,464,16,-257,8,249,24,1516,0,-12,8,428,16,-41,16,1203,16,525,24,2,-1,?
2017-03-21 14:13:34.738000,607,16,8,0,-577,0,-608,8,118,16,469,16,-253,8,239,24,1508,0,-24,8,408,16,-51,16,1198,16,528,24,2,-1,?
2017-03-21 14:13:34.747000,604,16,9,0,-581,0,-625,8,109,16,466,16,-263,8,224,24,1490,0,-47,8,385,16,-66,16,1190,16,522,24,2,-1,?
2017-03-21 14:13:34.754000,607,16,8,0,-580,0,-624,8,109,16,462,16,-262,8,234,24,1500,0,-38,8,400,16,-60,16,1192,16,519,24,2,-1,?
2017-03-21 14:13:34.762000,611,16,7,0,-576,0,-611,8,116,16,465,16,-249,8,245,24,1515,0,-22,8,416,16,-44,16,1199,16,525,24,2,-1,?
2017-03-21 14:13:34.770000,613,16,4,0,-573,0,-610,8,114,16,468,16,-251,8,238,24,1506,0,-25,8,411,16,-41,16,1200,16,526,24,2,-1,?
2017-03-21 14:13:34.778000,607,16,1,0,-577,0,-613,8,113,16,467,16,-266,8,226,24,1492,0,-37,8,397,16,-54,16,1188,16,519,24,2,-1,?
2017-03-21 14:13:34.786000,602,16,5,0,-578,0,-613,8,113,16,462,16,-275,8,218,24,1492,0,-47,8,390,16,-68,16,1184,16,518,24,2,-1,?
2017-03-21 14:13:34.794000,607,16,8,0,-579,0,-614,8,109,16,462,16,-263,8,233,24,1505,0,-39,8,398,16,-57,16,1195,16,524,24,2,-1,?
2017-03-21 14:13:34.802000,616,16,6,0,-585,0,-612,8,110,16,471,16,-247,8,253,24,1516,0,-17,8,420,16,-35,16,1205,16,525,24,2,-1,?
2017-03-21 14:13:34.810000,615,16,8,0,-581,0,-608,8,116,16,474,16,-252,8,242,24,1509,0,-17,8,422,16,-39,16,1203,16,523,24,2,-1,?
2017-03-21 14:13:34.818000,606,16,7,0,-577,0,-611,8,112,16,464,16,-271,8,222,24,1491,0,-43,8,396,16,-61,16,1191,16,522,24,2,-1,?
2017-03-21 14:13:34.826000,602,16,4,0,-580,0,-615,8,109,16,461,16,-283,8,216,24,1488,0,-56,8,380,16,-75,16,1184,16,523,24,2,-1,?
2017-03-21 14:13:34.832000,605,16,4,0,-579,0,-612,8,114,16,466,16,-269,8,232,24,1503,0,-37,8,397,16,-65,16,1193,16,524,24,2,-1,?
2017-03-21 14:13:34.840000,614,16,9,0,-569,0,-607,8,118,16,469,16,-245,8,253,24,1517,0,-13,8,424,16,-41,16,1205,16,525,24,2,-1,?
2017-03-21 14:13:34.848000,614,16,10,0,-568,0,-611,8,113,16,468,16,-248,8,246,24,1507,0,-17,8,421,16,-38,16,1207,16,524,24,2,-1,?
2017-03-21 14:13:34.856000,603,16,6,0,-580,0,-615,8,110,16,465,16,-270,8,219,24,1481,0,-42,8,392,16,-66,16,1190,16,520,24,2,-1,?
2017-03-21 14:13:34.864000,602,16,10,0,-581,0,-611,8,110,16,463,16,-278,8,216,24,1479,0,-44,8,390,16,-77,16,1178,16,522,24,2,-1,?
2017-03-21 14:13:34.871000,611,16,14,0,-575,0,-613,8,114,16,465,16,-262,8,239,24,1503,0,-22,8,416,16,-47,16,1191,16,527,24,2,-1,?
2017-03-21 14:13:34.879000,614,16,8,0,-575,0,-619,8,115,16,466,16,-250,8,248,24,1510,0,-21,8,423,16,-35,16,1206,16,526,24,2,-1,?
2017-03-21 14:13:34.887000,609,16,7,0,-577,0,-617,8,112,16,465,16,-265,8,227,24,1495,0,-38,8,401,16,-58,16,1197,16,527,24,2,-1,?
2017-03-21 14:13:34.895000,606,16,10,0,-581,0,-609,8,109,16,463,16,-276,8,218,24,1491,0,-42,8,389,16,-68,16,1181,16,527,24,2,-1,?
2017-03-21 14:13:34.903000,607,16,4,0,-580,0,-611,8,111,16,465,16,-261,8,235,24,1502,0,-31,8,405,16,-50,16,1192,16,523,24,2,-1,?
2017-03-21 14:13:34.910000,612,16,2,0,-574,0,-615,8,113,16,468,16,-249,8,244,24,1510,0,-27,8,420,16,-40,16,1208,16,522,24,2,-1,?
2017-03-21 14:13:34.918000,612,16,8,0,-569,0,-611,8,111,16,466,16,-257,8,235,24,1506,0,-35,8,405,16,-53,16,1196,16,521,24,2,-1,?
2017-03-21 14:13:34.926000,602,16,7,0,-569,0,-612,8,109,16,464,16,-272,8,228,24,1492,0,-43,8,387,16,-67,16,1182,16,522,24,2,-1,?
2017-03-21 14:13:34.934000,605,16,3,0,-575,0,-614,8,111,16,463,16,-263,8,231,24,1497,0,-36,8,396,16,-57,16,1187,16,529,24,2,-1,?
2017-03-21 14:13:34.942000,617,16,3,0,-579,0,-611,8,113,16,466,16,-247,8,243,24,1516,0,-22,8,419,16,-39,16,1200,16,530,24,2,-1,?
2017-03-21 14:13:34.951000,616,16,2,0,-579,0,-609,8,113,16,469,16,-252,8,246,24,1509,0,-21,8,417,16,-48,16,1203,16,522,24,2,-1,?
2017-03-21 14:13:34.957000,610,16,3,0,-580,0,-614,8,112,16,465,16,-266,8,230,24,1489,0,-35,8,395,16,-70,16,1196,16,518,24,2,-1,?
2017-03-21 14:13:34.966000,609,16,5,0,-579,0,-617,8,111,16,461,16,-277,8,217,24,1487,0,-50,8,387,16,-72,16,1188,16,525,24,2,-1,?
2017-03-21 14:13:34.974000,610,16,10,0,-577,0,-617,8,111,16,464,16,-267,8,233,24,1499,0,-40,8,399,16,-55,16,1192,16,527,24,2,-1,?
2017-03-21 14:13:34.981000,613,16,11,0,-576,0,-615,8,112,16,468,16,-245,8,255,24,1513,0,-16,8,421,16,-35,16,1207,16,526,24,2,-1,?
2017-03-21 14:13:34.989000,613,16,7,0,-572,0,-610,8,112,16,465,16,-244,8,252,24,1519,0,-22,8,424,16,-37,16,1207,16,527,24,2,-1,?
2017-03-21 14:13:34.998000,604,16,7,0,-571,0,-615,8,112,16,458,16,-265,8,231,24,1498,0,-49,8,395,16,-59,16,1188,16,524,24,2,-1,?
2017-03-21 14:13:35.004000,606,16,10,0,-577,0,-623,8,114,16,461,16,-284,8,211,24,1477,0,-50,8,384,16,-71,16,1183,16,523,24,2,-1,?
2017-03-21 14:13:35.012000,617,16,5,0,-579,0,-619,8,115,16,470,16,-274,8,224,24,1495,0,-23,8,408,16,-56,16,1198,16,528,24,2,-1,?
2017-03-21 14:13:35.020000,619,16,2,0,-578,0,-612,8,113,16,469,16,-247,8,257,24,1521,0,-6,8,425,16,-39,16,1213,16,529,24,2,-1,?
2017-03-21 14:13:35.029000,611,16,7,0,-578,0,-612,8,113,16,464,16,-249,8,249,24,1509,0,-21,8,418,16,-44,16,1206,16,525,24,2,-1,?
2017-03-21 14:13:35.036000,605,16,3,0,-581,0,-617,8,113,16,467,16,-275,8,214,24,1483,0,-47,8,391,16,-67,16,1181,16,523,24,2,-1,?
2017-03-21 14:13:35.043000,609,16,4,0,-581,0,-617,8,111,16,467,16,-278,8,216,24,1488,0,-41,8,391,16,-70,16,1181,16,518,24,2,-1,?
2017-03-21 14:13:35.051000,613,16,14,0,-578,0,-614,8,114,16,469,16,-253,8,245,24,1511,0,-20,8,420,16,-47,16,1203,16,522,24,2,-1,?
2017-03-21 14:13:35.059000,608,16,10,0,-581,0,-613,8,114,16,474,16,-248,8,249,24,1513,0,-25,8,416,16,-43,16,1204,16,528,24,2,-1,?
2017-03-21 14:13:35.067000,606,16,4,0,-578,0,-619,8,112,16,471,16,-273,8,227,24,1499,0,-39,8,396,16,-61,16,1193,16,524,24,2,-1,?
2017-03-21 14:13:35.076000,610,16,7,0,-572,0,-616,8,119,16,468,16,-276,8,227,24,1497,0,-33,8,402,16,-60,16,1192,16,526,24,2,-1,?
2017-03-21 14:13:35.084000,614,16,10,0,-576,0,-608,8,119,16,471,16,-250,8,248,24,1508,0,-24,8,412,16,-46,16,1197,16,530,24,2,-1,?
2017-03-21 14:13:35.091000,612,16,8,0,-578,0,-611,8,108,16,471,16,-244,8,252,24,1513,0,-30,8,405,16,-47,16,1202,16,523,24,2,-1,?
2017-03-21 14:13:35.099000,608,16,4,0,-574,0,-617,8,105,16,464,16,-263,8,232,24,1501,0,-43,8,398,16,-57,16,1199,16,520,24,2,-1,?
2017-03-21 14:13:35.106000,605,0,4,0,-577,0,-617,8,115,16,464,16,-279,8,213,24,1485,0,-47,8,397,16,-67,16,1187,16,527,24,2,-1,?
2017-03-21 14:13:35.114000,609,0,4,24,-581,0,-611,8,119,16,467,16,-270,8,221,24,1492,0,-32,8,406,16,-62,16,1186,16,529,24,2,-1,?
2017-03-21 14:13:35.122000,613,0,2,24,-573,0,-610,8,114,16,467,16,-247,8,243,24,1514,0,-15,8,421,16,-42,16,1200,16,528,24,2,-1,?
2017-03-21 14:13:35.129000,611,0,4,24,-572,0,-615,8,110,16,468,16,-247,8,247,24,1516,0,-23,8,416,16,-40,16,1203,16,529,24,2,-1,?
2017-03-21 14:13:35.137000,607,0,7,24,-581,0,-616,0,111,16,468,16,-270,8,231,24,1500,0,-44,8,397,16,-57,16,1189,16,524,24,2,-1,?
2017-03-21 14:13:35.145000,602,0,8,24,-580,0,-616,0,114,24,467,16,-286,8,215,24,1489,0,-50,8,394,16,-67,16,1182,16,522,24,2,-1,?
2017-03-21 14:13:35.153000,605,0,8,24,-577,0,-616,0,119,24,467,24,-268,8,227,24,1498,0,-34,8,410,16,-53,16,1191,16,526,24,2,-1,?
2017-03-21 14:13:35.162000,614,0,4,24,-577,0,-612,0,117,24,471,24,-242,24,256,24,1516,0,-13,8,431,16,-31,16,1208,16,526,24,2,-1,?
2017-03-21 14:13:35.169000,613,0,3,24,-575,0,-613,0,109,24,471,24,-242,24,253,24,1514,0,-20,8,423,16,-37,16,1212,16,520,24,2,-1,?
2017-03-21 14:13:35.176000,604,0,9,24,-580,0,-616,0,107,24,465,24,-267,24,221,24,1490,8,-51,8,393,16,-69,16,1190,16,518,24,2,-1,?
2017-03-21 14:13:35.184000,605,0,11,24,-581,0,-616,0,113,24,467,24,-279,24,214,24,1482,8,-54,24,391,16,-74,16,1182,16,523,24,2,-1,?
2017-03-21 14:13:35.192000,612,0,4,24,-575,0,-616,0,118,24,471,24,-258,24,241,24,1505,8,-25,24,417,24,-46,16,1203,16,524,24,2,-1,?
2017-03-21 14:13:35.200000,610,0,0,24,-572,0,-617,0,116,24,468,24,-243,24,253,24,1521,8,-15,24,424,24,-38,0,1210,16,522,24,2,-1,?
2017-03-21 14:13:35.208000,606,0,3,24,-580,0,-615,0,115,24,466,24,-261,24,230,24,1504,8,-38,24,407,24,-59,0,1194,16,522,24,2,-1,?
2017-03-21 14:13:35.216000,605,0,3,24,-585,0,-613,0,117,24,464,24,-277,24,214,24,1485,8,-50,0,393,24,-67,0,1185,16,522,24,2,-1,?
2017-03-21 14:13:35.223000,608,0,2,24,-577,0,-614,0,115,24,466,24,-274,24,226,24,1492,8,-34,0,402,16,-52,0,1196,16,524,24,2,-1,?
2017-03-21 14:13:35.231000,613,0,6,24,-573,0,-615,0,112,24,470,24,-263,24,242,24,1512,8,-21,0,412,16,-45,16,1204,16,527,24,2,-1,?
2017-03-21 14:13:35.240000,615,0,12,24,-577,0,-617,0,114,24,469,24,-255,24,236,24,1508,8,-28,0,404,16,-56,16,1197,16,524,24,2,-1,?
2017-03-21 14:13:35.248000,610,0,14,24,-581,0,-617,0,113,24,464,24,-262,24,220,24,1488,8,-39,0,398,16,-62,16,1192,16,524,24,2,-1,?
2017-03-21 14:13:35.256000,609,0,9,24,-583,0,-613,0,112,24,465,24,-259,24,229,24,1495,8,-37,0,411,16,-51,16,1197,16,527,24,2,-1,?
2017-03-21 14:13:35.262000,614,0,6,24,-579,0,-612,0,117,24,473,24,-241,24,246,24,1513,8,-27,0,422,16,-42,16,1201,16,529,24,2,-1,?
2017-03-21 14:13:35.270000,613,0,5,24,-577,0,-614,0,119,24,471,24,-244,24,240,24,1510,8,-25,0,414,16,-48,16,1195,16,523,24,2,-1,?
2017-03-21 14:13:35.279000,604,0,4,24,-579,0,-614,0,113,24,464,24,-264,24,227,24,1492,8,-43,0,393,16,-62,16,1184,16,516,24,2,-1,?
2017-03-21 14:13:35.286000,600,0,7,24,-581,0,-612,0,112,24,467,24,-273,24,219,24,1479,8,-55,0,390,16,-67,16,1184,16,521,24,2,-1,?
2017-03-21 14:13:35.294000,606,0,9,24,-583,0,-613,0,119,24,472,24,-263,24,228,24,1489,8,-33,0,410,16,-54,16,1194,16,527,24,2,-1,?
2017-03-21 14:13:35.301000,613,0,6,24,-581,0,-614,0,116,24,472,24,-248,24,254,24,1515,8,-9,0,423,16,-40,16,1201,16,525,24,2,-1,?
2017-03-21 14:13:35.309000,612,0,6,24,-578,0,-615,0,106,24,470,24,-250,24,253,24,1514,8,-21,0,414,16,-43,16,1200,16,520,24,2,-1,?
2017-03-21 14:13:35.317000,604,0,5,24,-586,0,-615,0,108,24,464,24,-268,24,221,24,1489,8,-46,0,386,16,-62,16,1189,16,521,24,2,-1,?
2017-03-21 14:13:35.326000,601,0,3,24,-586,0,-615,0,112,24,460,24,-280,24,211,24,1484,8,-53,0,380,16,-73,16,1185,16,524,24,2,-1,?
2017-03-21 14:13:35.333000,611,0,6,24,-573,0,-613,0,111,24,465,24,-267,24,236,24,1504,8,-35,0,408,16,-54,16,1195,16,521,24,2,-1,?
2017-03-21 14:13:35.341000,616,0,11,24,-576,0,-612,0,112,24,471,24,-246,24,255,24,1522,8,-15,0,424,16,-32,16,1209,16,520,24,2,-1,?
2017-03-21 14:13:35.348000,606,0,9,24,-585,0,-613,0,116,24,467,24,-252,24,246,24,1516,8,-24,0,404,16,-43,16,1205,16,527,24,2,-1,?
2017-03-21 14:13:35.357000,600,0,3,24,-582,0,-612,0,112,24,464,24,-275,24,226,24,1492,8,-51,0,381,16,-68,16,1185,16,527,24,2,-1,?
2017-03-21 14:13:35.364000,607,0,5,24,-578,0,-614,0,108,24,466,24,-274,24,218,24,1488,8,-53,0,393,16,-66,16,1186,16,521,24,2,-1,?
2017-03-21 14:13:35.372000,612,0,11,24,-575,0,-614,0,115,24,468,24,-251,24,237,24,1510,8,-25,0,416,16,-45,16,1204,16,520,24,2,-1,?
2017-03-21 14:13:35.380000,605,0,10,24,-574,0,-614,0,118,24,470,24,-248,24,250,24,1516,8,-16,0,416,16,-39,16,1203,16,522,24,2,-1,?
2017-03-21 14:13:35.388000,604,0,0,24,-576,0,-617,0,114,24,469,24,-270,24,227,24,1495,8,-39,0,403,16,-58,16,1190,16,522,24,2,-1,?
2017-03-21 14:13:35.396000,610,0,1,24,-579,0,-616,0,116,24,463,24,-268,24,221,24,1491,8,-42,0,401,16,-64,16,1186,16,517,24,2,-1,?
2017-03-21 14:13:35.404000,613,0,12,24,-581,0,-614,0,119,24,466,24,-253,24,244,24,1507,8,-25,0,408,16,-51,16,1192,16,520,24,2,-1,?
2017-03-21 14:13:35.412000,610,0,13,24,-582,0,-612,0,111,24,474,24,-255,24,241,24,1510,8,-30,0,411,16,-48,16,1195,16,529,24,2,-1,?
2017-03-21 14:13:35.419000,605,0,1,24,-584,0,-614,0,104,24,466,24,-262,24,224,24,1498,8,-38,0,407,16,-55,16,1196,16,526,24,2,-1,?
2017-03-21 14:13:35.428000,603,0,-1,24,-575,0,-614,0,118,24,467,24,-271,24,219,24,1491,8,-42,0,395,16,-65,16,1191,16,522,24,2,-1,?
2017-03-21 14:13:35.434000,609,0,8,24,-573,0,-609,0,124,24,475,24,-266,24,231,24,1501,8,-37,0,398,16,-59,16,1191,16,523,24,2,-1,?
2017-03-21 14:13:35.443000,611,0,4,24,-580,0,-611,0,113,24,470,24,-248,24,249,24,1514,8,-20,0,421,16,-42,16,1206,16,523,24,2,-1,?
2017-03-21 14:13:35.450000,608,0,3,24,-577,0,-617,0,113,24,470,24,-254,24,242,24,1505,8,-22,0,413,16,-44,16,1204,16,520,24,2,-1,?
2017-03-21 14:13:35.458000,608,0,10,24,-571,0,-616,0,113,24,467,24,-276,24,227,24,1488,8,-38,0,390,16,-59,16,1189,16,517,24,2,-1,?
2017-03-21 14:13:35.466000,608,0,11,24,-578,0,-616,0,109,24,462,24,-278,24,223,24,1485,8,-45,0,382,16,-70,16,1189,16,519,24,2,-1,?
2017-03-21 14:13:35.474000,610,0,8,24,-584,0,-615,0,114,24,470,24,-259,24,235,24,1498,8,-34,0,395,16,-61,16,1196,16,524,24,2,-1,?
2017-03-21 14:13:35.482000,618,0,11,24,-581,0,-611,0,120,24,473,24,-244,24,253,24,1515,8,-13,0,419,16,-33,16,1203,16,525,24,2,-1,?
2017-03-21 14:13:35.490000,619,0,11,24,-578,0,-612,0,118,24,471,24,-254,24,249,24,1512,8,-17,0,417,16,-38,16,1196,16,522,24,2,-1,?
2017-03-21 14:13:35.498000,605,0,5,24,-580,0,-619,0,111,24,469,24,-276,24,224,24,1491,8,-50,0,384,16,-71,16,1185,16,520,24,2,-1,?
2017-03-21 14:13:35.506000,599,0,6,24,-580,0,-616,0,110,24,464,24,-281,24,213,24,1486,8,-64,0,371,16,-78,16,1183,16,522,24,2,-1,?
2017-03-21 14:13:35.513000,608,0,8,24,-575,0,-604,0,116,24,465,24,-261,24,235,24,1506,8,-34,0,402,16,-52,16,1192,16,527,24,2,-1,?
2017-03-21 14:13:35.521000,615,0,5,24,-575,0,-612,0,122,24,471,24,-246,24,254,24,1518,8,-8,0,427,16,-33,16,1203,16,529,24,2,-1,?
2017-03-21 14:13:35.529000,610,0,6,24,-583,0,-625,0,118,24,465,24,-260,24,238,24,1501,8,-30,0,410,16,-47,16,1199,16,522,24,2,-1,?
2017-03-21 14:13:35.537000,603,0,4,24,-582,0,-618,0,111,24,458,24,-273,24,220,24,1487,8,-56,0,384,16,-70,16,1182,16,517,24,2,-1,?
2017-03-21 14:13:35.544000,607,0,2,24,-576,0,-611,0,112,24,466,24,-265,24,227,24,1494,8,-43,0,394,16,-68,16,1185,16,523,24,2,-1,?
2017-03-21 14:13:35.552000,612,0,5,24,-575,0,-614,0,116,24,473,24,-256,24,242,24,1510,8,-20,0,415,16,-46,16,1202,16,523,24,2,-1,?
2017-03-21 14:13:35.560000,609,0,7,24,-580,0,-614,0,117,24,471,24,-258,24,241,24,1508,8,-22,0,405,16,-42,16,1202,16,522,24,2,-1,?
2017-03-21 14:13:35.567000,606,0,6,24,-579,0,-614,0,113,24,465,24,-267,24,226,24,1492,8,-39,0,389,16,-61,16,1192,16,525,24,2,-1,?
2017-03-21 14:13:35.575000,609,0,6,24,-579,0,-615,0,109,24,466,24,-262,24,226,24,1497,8,-38,0,392,16,-59,16,1190,16,523,24,2,-1,?
2017-03-21 14:13:35.583000,613,0,9,24,-580,0,-614,0,112,24,469,24,-254,24,241,24,1511,8,-23,0,410,16,-40,16,1198,16,521,24,2,-1,?
2017-03-21 14:13:35.592000,615,0,7,24,-582,0,-612,0,116,24,465,24,-256,24,244,24,1505,8,-21,0,420,16,-40,16,1205,16,522,24,2,-1,?
2017-03-21 14:13:35.600000,607,0,4,24,-582,0,-613,0,118,24,462,24,-264,24,227,24,1493,8,-38,0,399,16,-60,16,1194,16,523,24,2,-1,?
2017-03-21 14:13:35.606000,602,0,3,24,-578,0,-616,0,119,24,462,24,-274,24,217,24,1490,8,-53,0,383,16,-74,16,1181,16,523,24,2,-1,?
2017-03-21 14:13:35.615000,608,24,5,24,-576,0,-614,0,120,24,467,24,-265,24,235,24,1501,8,-41,0,397,16,-61,16,1188,16,522,24,2,-1,?
2017-03-21 14:13:35.623000,609,24,10,0,-578,0,-611,0,116,24,472,24,-245,24,256,24,1515,8,-18,0,420,16,-41,16,1205,16,523,24,2,-1,?
2017-03-21 14:13:35.630000,605,24,7,0,-578,0,-615,0,114,24,468,24,-247,24,244,24,1510,8,-17,0,421,16,-40,16,1207,16,525,0,2,-1,?
2017-03-21 14:13:35.638000,606,24,5,0,-578,8,-614,0,116,24,461,24,-267,24,219,24,1495,8,-44,0,396,16,-60,16,1187,16,521,0,2,-1,?
2017-03-21 14:13:35.646000,605,24,10,0,-577,8,-611,24,115,24,463,24,-280,24,213,24,1490,8,-61,0,380,16,-74,16,1179,16,520,0,2,-1,?
2017-03-21 14:13:35.653000,605,24,10,0,-578,8,-613,24,118,8,465,24,-265,24,233,24,1501,8,-38,0,395,16,-59,16,1193,16,524,0,2,-1,?
2017-03-21 14:13:35.662000,613,24,6,0,-576,8,-612,24,121,8,466,16,-242,24,254,24,1516,8,-9,0,425,16,-35,16,1203,16,526,0,2,-1,?
2017-03-21 14:13:35.670000,617,24,8,0,-578,8,-610,24,112,8,468,16,-250,0,247,24,1509,8,-18,0,428,16,-36,16,1199,16,524,0,2,-1,?
2017-03-21 14:13:35.677000,607,24,7,0,-580,8,-614,24,108,8,469,16,-274,0,229,8,1486,8,-48,0,392,16,-64,16,1184,16,521,0,2,-1,?
2017-03-21 14:13:35.685000,603,24,3,0,-578,8,-613,24,118,8,467,16,-277,0,225,8,1484,24,-47,0,385,16,-72,16,1179,16,520,0,2,-1,?
2017-03-21 14:13:35.694000,607,24,4,0,-583,8,-612,24,117,8,465,16,-258,0,240,8,1504,24,-19,8,419,16,-46,16,1198,16,521,0,2,-1,?
2017-03-21 14:13:35.701000,607,24,7,0,-582,8,-616,24,113,8,470,16,-248,0,249,8,1513,24,-18,8,420,16,-36,16,1205,16,522,0,2,-1,?
2017-03-21 14:13:35.709000,607,24,8,0,-574,8,-617,24,116,8,470,16,-263,0,233,8,1502,24,-40,8,397,16,-54,16,1189,16,522,0,2,-1,?
2017-03-21 14:13:35.717000,611,24,4,0,-579,8,-618,24,112,8,459,16,-271,0,221,8,1494,24,-43,8,395,16,-64,16,1183,24,522,0,2,-1,?
2017-03-21 14:13:35.724000,610,24,2,0,-583,8,-617,24,111,8,461,16,-264,0,233,8,1500,24,-29,8,408,16,-49,16,1195,24,525,0,2,-1,?
2017-03-21 14:13:35.733000,608,24,7,0,-577,8,-611,24,117,8,469,16,-257,0,245,8,1508,24,-19,8,418,8,-36,16,1198,24,526,0,2,-1,?
2017-03-21 14:13:35.739000,610,24,9,0,-577,8,-611,24,116,8,465,16,-259,0,237,8,1504,24,-28,8,413,8,-47,16,1189,24,523,0,2,-1,?
2017-03-21 14:13:35.748000,607,24,7,0,-581,8,-617,24,113,8,464,16,-269,0,226,8,1489,24,-49,8,392,8,-68,16,1185,24,522,0,2,-1,?
2017-03-21 14:13:35.755000,604,24,5,0,-576,8,-613,24,118,8,468,16,-265,0,231,8,1493,24,-43,8,395,8,-62,16,1192,24,525,0,2,-1,?
2017-03-21 14:13:35.764000,615,24,9,0,-572,8,-609,24,114,8,466,16,-249,0,253,8,1514,24,-18,8,426,8,-37,16,1205,24,526,0,2,-1,?
2017-03-21 14:13:35.771000,618,24,11,0,-575,8,-610,24,111,8,467,16,-249,0,253,8,1511,24,-18,8,424,8,-37,16,1202,24,527,0,2,-1,?
2017-03-21 14:13:35.779000,604,24,3,0,-583,8,-611,24,116,8,469,16,-266,0,227,8,1491,24,-39,8,394,8,-62,16,1188,24,525,0,2,-1,?
2017-03-21 14:13:35.786000,599,24,2,0,-584,8,-615,24,114,8,464,16,-278,0,214,8,1485,24,-49,8,384,8,-76,16,1182,24,520,0,2,-1,?
2017-03-21 14:13:35.794000,608,24,7,0,-577,8,-615,24,112,8,465,16,-268,0,233,8,1499,24,-34,8,402,8,-59,16,1189,24,523,0,2,-1,?
2017-03-21 14:13:35.803000,616,24,7,0,-574,8,-609,24,118,8,471,16,-249,0,253,8,1516,24,-11,8,424,8,-32,16,1207,24,526,0,2,-1,?
2017-03-21 14:13:35.811000,614,24,6,0,-575,8,-610,24,120,8,471,16,-247,0,246,8,1511,24,-17,8,422,8,-33,16,1208,24,523,0,2,-1,?
2017-03-21 14:13:35.818000,609,24,7,0,-580,8,-615,24,109,8,462,16,-266,0,228,8,1489,24,-44,8,397,8,-62,16,1183,24,519,0,2,-1,?
2017-03-21 14:13:35.825000,605,24,7,0,-581,8,-618,24,105,8,460,16,-284,0,214,8,1480,24,-43,8,389,8,-75,16,1177,24,518,0,2,-1,?
2017-03-21 14:13:35.834000,608,24,6,0,-579,8,-618,24,114,8,470,16,-270,0,227,8,1498,24,-21,8,409,8,-53,16,1196,24,523,0,2,-1,?
2017-03-21 14:13:35.841000,616,24,7,0,-578,8,-613,24,116,8,471,16,-239,0,256,8,1517,24,-12,8,425,8,-32,16,1206,24,527,0,2,-1,?
2017-03-21 14:13:35.850000,614,24,7,0,-579,8,-613,24,114,8,467,16,-245,0,249,8,1506,24,-24,8,413,8,-44,16,1198,24,523,0,2,-1,?
2017-03-21 14:13:35.858000,607,24,6,0,-580,8,-619,24,114,8,469,16,-270,0,218,8,1486,24,-40,8,387,8,-66,16,1184,24,521,0,2,-1,?
2017-03-21 14:13:35.866000,609,24,4,0,-579,8,-620,24,114,8,470,16,-273,0,219,8,1488,24,-42,8,390,8,-60,16,1185,24,524,0,2,-1,?
2017-03-21 14:13:35.873000,611,24,5,0,-576,8,-616,24,116,8,468,16,-253,0,243,8,1508,24,-26,8,417,8,-40,16,1202,24,525,0,2,-1,?
2017-03-21 14:13:35.881000,608,24,11,0,-577,8,-615,24,118,8,469,16,-245,0,247,8,1514,24,-21,8,414,8,-46,16,1203,24,519,0,2,-1,?
2017-03-21 14:13:35.889000,608,24,12,0,-577,8,-615,24,116,8,469,16,-267,0,229,8,1499,24,-38,8,395,8,-67,16,1186,24,517,0,2,-1,?
2017-03-21 14:13:35.896000,609,24,6,0,-576,8,-612,24,119,8,466,16,-274,0,229,8,1499,24,-41,8,400,8,-63,16,1186,24,523,0,2,-1,?
2017-03-21 14:13:35.905000,611,24,5,0,-576,8,-612,24,117,8,467,16,-254,0,243,8,1513,24,-27,8,417,8,-44,16,1201,24,524,0,2,-1,?
2017-03-21 14:13:35.911000,614,24,10,0,-576,8,-616,24,111,8,467,16,-249,0,243,8,1513,24,-28,8,419,8,-48,16,1206,24,518,0,2,-1,?
2017-03-21 14:13:35.920000,609,24,10,0,-575,8,-618,24,112,8,466,16,-268,0,229,8,1495,24,-41,8,403,8,-64,16,1193,24,519,0,2,-1,?
2017-03-21 14:13:35.928000,606,24,5,0,-575,8,-615,24,119,8,469,16,-280,0,215,8,1481,24,-43,8,389,8,-68,16,1181,24,526,0,2,-1,?
2017-03-21 14:13:35.936000,611,24,7,0,-577,8,-616,24,119,8,466,16,-266,0,224,8,1494,24,-27,8,401,8,-57,16,1188,24,525,0,2,-1,?
2017-03-21 14:13:35.944000,612,24,12,0,-575,8,-619,24,116,8,465,16,-247,0,247,8,1515,24,-14,8,426,8,-43,16,1206,24,522,0,2,-1,?
2017-03-21 14:13:35.951000,610,24,11,0,-577,8,-619,24,117,8,470,16,-251,0,250,8,1512,24,-26,8,418,8,-45,16,1207,24,524,0,2,-1,?
2017-03-21 14:13:35.959000,610,24,5,0,-585,8,-613,24,113,8,472,16,-269,0,231,8,1493,24,-45,8,392,8,-63,16,1190,24,522,0,2,-1,?
2017-03-21 14:13:35.966000,605,24,2,0,-581,8,-614,24,112,8,471,16,-280,0,211,8,1485,24,-46,8,389,8,-73,16,1185,24,522,0,2,-1,?
2017-03-21 14:13:35.974000,606,24,6,0,-576,8,-615,24,118,8,466,16,-270,0,223,8,1499,24,-30,8,410,8,-56,16,1195,24,520,0,2,-1,?
2017-03-21 14:13:35.982000,615,24,10,0,-579,8,-611,24,118,8,466,16,-243,0,255,8,1523,24,-13,8,430,8,-33,16,1208,24,519,0,2,-1,?
2017-03-21 14:13:35.990000,611,24,9,0,-577,8,-609,24,112,8,469,16,-243,0,255,8,1521,24,-22,8,420,8,-38,16,1209,24,521,0,2,-1,?
2017-03-21 14:13:35.998000,601,24,6,0,-576,8,-613,24,115,8,462,16,-273,0,219,8,1489,24,-50,8,387,8,-67,16,1185,24,522,0,2,-1,?
2017-03-21 14:13:36.006000,606,24,4,0,-581,8,-617,24,114,8,461,16,-278,0,211,8,1482,24,-49,8,389,8,-72,16,1179,24,523,0,2,-1,?
2017-03-21 14:13:36.014000,611,24,7,0,-580,8,-616,24,105,8,469,16,-250,0,241,8,1510,24,-21,8,421,8,-43,16,1198,24,524,0,2,-1,?
2017-03-21 14:13:36.022000,606,24,11,0,-574,8,-613,24,112,8,468,16,-238,0,257,8,1523,24,-17,8,423,8,-36,16,1200,24,524,0,2,-1,?
2017-03-21 14:13:36.030000,606,24,8,0,-575,8,-616,24,123,8,462,16,-258,0,239,8,1506,24,-36,8,398,8,-61,16,1189,24,522,0,2,-1,?
2017-03-21 14:13:36.038000,607,24,5,0,-577,8,-617,24,118,8,464,16,-276,0,222,8,1488,24,-47,8,391,8,-73,16,1185,24,520,0,2,-1,?
2017-03-21 14:13:36.045000,605,24,10,0,-575,8,-613,24,111,8,468,16,-273,0,228,8,1494,24,-38,8,408,8,-55,16,1190,24,525,0,2,-1,?
2017-03-21 14:13:36.052000,607,24,10,0,-578,8,-612,24,114,8,467,16,-257,0,243,8,1509,24,-25,8,415,8,-43,16,1198,24,530,0,2,-1,?
2017-03-21 14:13:36.061000,606,24,6,0,-580,8,-616,24,117,8,468,16,-258,0,237,8,1499,24,-31,8,404,8,-57,16,1193,24,528,0,2,-1,?
2017-03-21 14:13:36.069000,602,24,8,0,-576,8,-617,24,110,8,466,16,-273,0,218,8,1481,24,-46,8,401,8,-64,16,1189,24,522,0,2,-1,?
2017-03-21 14:13:36.076000,610,24,11,0,-576,8,-612,24,105,8,464,16,-267,0,230,8,1496,24,-34,8,411,8,-52,16,1199,24,521,0,2,-1,?
2017-03-21 14:13:36.083000,617,24,10,0,-574,8,-610,24,115,8,470,16,-252,0,249,8,1518,24,-18,8,415,8,-42,16,1201,24,526,0,2,-1,?
2017-03-21 14:13:36.091000,609,24,7,0,-576,8,-614,24,118,8,473,16,-254,0,241,8,1511,24,-28,8,407,8,-47,16,1195,24,524,0,2,-1,?
2017-03-21 14:13:36.099000,604,24,5,0,-581,8,-615,24,113,8,466,16,-265,0,224,8,1491,24,-43,8,391,8,-63,16,1189,24,518,0,2,-1,?
2017-03-21 14:13:36.108000,607,24,11,0,-579,8,-619,24,113,8,464,16,-276,0,217,8,1483,24,-41,8,392,8,-71,16,1186,24,524,0,2,-1,?
2017-03-21 14:13:36.116000,610,16,14,0,-579,8,-618,24,116,8,466,16,-267,0,230,8,1501,24,-28,8,410,8,-54,16,1191,24,526,0,2,-1,?
2017-03-21 14:13:36.124000,616,16,5,0,-581,8,-611,24,117,8,468,16,-244,0,254,8,1519,24,-20,8,421,8,-33,16,1209,24,523,0,2,-1,?
2017-03-21 14:13:36.131000,614,16,0,0,-576,8,-612,24,121,8,468,16,-248,0,253,8,1512,24,-27,8,416,8,-45,16,1208,24,527,0,2,-1,?
2017-03-21 14:13:36.139000,602,16,5,0,-576,24,-616,24,113,8,463,16,-271,0,232,8,1493,24,-45,8,397,8,-70,16,1185,24,526,0,2,-1,?
2017-03-21 14:13:36.147000,599,16,4,0,-579,24,-617,8,104,8,465,16,-277,0,224,8,1484,24,-52,8,387,8,-74,16,1182,24,518,0,2,-1,?
2017-03-21 14:13:36.154000,606,16,5,0,-577,24,-617,8,116,8,469,16,-257,0,236,8,1497,24,-38,8,404,8,-53,16,1196,24,520,0,2,-1,?
2017-03-21 14:13:36.163000,609,16,6,0,-579,24,-617,8,119,8,469,8,-235,0,257,8,1519,24,-19,8,426,8,-33,16,1203,24,528,0,2,-1,?
2017-03-21 14:13:36.170000,608,16,1,0,-579,24,-615,8,110,8,468,8,-246,0,251,8,1516,24,-26,8,413,8,-47,16,1198,24,526,0,2,-1,?
2017-03-21 14:13:36.178000,605,16,1,0,-577,24,-616,8,111,8,469,8,-276,0,225,8,1491,24,-49,8,381,8,-72,16,1186,24,517,0,2,-1,?
2017-03-21 14:13:36.185000,603,16,9,0,-580,24,-618,8,115,8,469,8,-280,0,219,8,1485,8,-48,8,391,8,-69,16,1185,24,520,0,2,-1,?
2017-03-21 14:13:36.193000,608,16,10,0,-577,24,-609,8,118,8,467,8,-256,0,242,8,1510,8,-21,24,420,8,-45,16,1197,24,528,0,2,-1,?
2017-03-21 14:13:36.201000,612,16,4,0,-575,24,-607,8,120,8,465,8,-248,0,251,8,1521,8,-15,24,413,8,-39,16,1202,24,526,0,2,-1,?
2017-03-21 14:13:36.209000,608,16,3,0,-582,24,-616,8,115,8,468,8,-270,0,229,8,1501,8,-41,24,391,8,-58,0,1194,24,519,0,2,-1,?
2017-03-21 14:13:36.216000,605,16,6,0,-586,24,-616,8,111,8,470,8,-272,0,229,8,1497,8,-47,24,395,8,-58,0,1191,16,519,0,2,-1,?
2017-03-21 14:13:36.224000,606,16,4,0,-577,24,-614,8,115,8,468,8,-255,0,244,8,1509,8,-27,0,411,8,-46,0,1201,16,521,0,2,-1,?
2017-03-21 14:13:36.232000,608,16,3,0,-574,24,-616,8,113,8,468,8,-255,0,240,8,1508,8,-25,0,411,0,-52,0,1198,16,525,0,2,-1,?
2017-03-21 14:13:36.240000,610,16,6,0,-581,24,-615,8,110,8,467,8,-265,0,230,8,1494,8,-38,0,400,0,-64,24,1188,16,525,0,2,-1,?
2017-03-21 14:13:36.248000,610,16,7,0,-576,24,-617,8,117,8,466,8,-271,0,226,8,1489,8,-43,0,394,0,-63,24,1190,16,521,0,2,-1,?
2017-03-21 14:13:36.257000,608,16,6,0,-572,24,-617,8,121,8,471,8,-264,0,235,8,1502,8,-33,0,404,0,-51,24,1197,16,520,0,2,-1,?
2017-03-21 14:13:36.264000,611,16,4,0,-576,24,-611,8,116,8,469,8,-252,0,251,8,1514,8,-21,0,419,0,-40,24,1202,16,526,0,2,-1,?
2017-03-21 14:13:36.272000,614,16,4,0,-579,24,-611,8,110,8,461,8,-257,0,246,8,1506,8,-25,0,418,0,-45,24,1198,16,529,0,2,-1,?
2017-03-21 14:13:36.280000,607,16,4,0,-580,24,-615,8,110,8,458,8,-269,0,226,8,1493,8,-44,0,392,0,-64,24,1185,16,522,0,2,-1,?
2017-03-21 14:13:36.288000,601,16,7,0,-583,24,-617,8,114,8,464,8,-273,0,216,8,1491,8,-56,0,377,0,-72,24,1184,16,517,0,2,-1,?
2017-03-21 14:13:36.295000,605,16,8,0,-583,24,-615,8,116,8,471,8,-258,0,230,8,1500,8,-39,0,399,0,-56,24,1195,16,520,0,2,-1,?
2017-03-21 14:13:36.302000,615,16,6,0,-580,24,-612,8,114,8,475,8,-242,0,254,8,1515,8,-13,0,424,0,-33,24,1205,16,527,0,2,-1,?
2017-03-21 14:13:36.311000,615,16,5,0,-578,24,-613,8,114,8,475,8,-255,0,253,8,1513,8,-16,0,417,0,-36,24,1207,16,524,0,2,-1,?
2017-03-21 14:13:36.318000,604,16,3,0,-582,24,-617,8,114,8,469,8,-277,0,223,8,1490,8,-46,0,388,0,-68,24,1187,16,522,0,2,-1,?
2017-03-21 14:13:36.326000,605,16,3,0,-583,24,-618,8,117,8,464,8,-279,0,210,8,1480,8,-56,0,381,0,-83,24,1178,16,527,0,2,-1,?
2017-03-21 14:13:36.334000,614,16,5,0,-579,24,-616,8,121,8,470,8,-260,0,236,8,1501,8,-34,0,407,0,-54,24,1194,16,525,0,2,-1,?
2017-03-21 14:13:36.342000,615,16,5,0,-579,24,-612,8,119,8,470,8,-247,0,255,8,1518,8,-15,0,426,0,-29,24,1207,16,524,0,2,-1,?
2017-03-21 14:13:36.349000,608,16,5,0,-581,24,-607,8,112,8,463,8,-261,0,235,8,1502,8,-28,0,405,0,-50,24,1199,16,523,0,2,-1,?
2017-03-21 14:13:36.358000,608,16,4,0,-581,24,-609,8,105,8,464,8,-279,0,215,8,1481,8,-53,0,381,0,-72,24,1189,16,519,0,2,-1,?
2017-03-21 14:13:36.365000,612,16,2,0,-579,24,-611,8,109,8,470,8,-272,0,228,8,1490,8,-50,0,398,0,-59,24,1195,16,521,0,2,-1,?
2017-03-21 14:13:36.373000,609,16,1,0,-580,24,-607,8,118,8,466,8,-252,0,244,8,1512,8,-27,0,417,0,-43,24,1203,16,524,0,2,-1,?
2017-03-21 14:13:36.381000,605,16,3,0,-581,24,-608,8,117,8,463,8,-251,0,241,8,1509,8,-23,0,404,0,-49,24,1200,16,525,0,2,-1,?
2017-03-21 14:13:36.388000,606,16,7,0,-578,24,-617,8,113,8,471,8,-268,0,230,8,1490,8,-39,0,394,0,-63,24,1190,16,525,0,2,-1,?
2017-03-21 14:13:36.396000,609,16,8,0,-578,24,-619,8,117,8,476,8,-264,0,237,8,1496,8,-40,0,403,0,-56,24,1188,16,519,0,2,-1,?
2017-03-21 14:13:36.405000,610,16,6,0,-579,24,-612,8,118,8,471,8,-251,0,247,8,1516,8,-26,0,417,0,-39,24,1199,16,519,0,2,-1,?
2017-03-21 14:13:36.413000,611,16,0,0,-577,24,-606,8,117,8,466,8,-256,0,236,8,1510,8,-21,0,418,0,-40,24,1202,16,528,0,2,-1,?
2017-03-21 14:13:36.421000,607,16,1,0,-576,24,-608,8,116,8,467,8,-266,0,222,8,1493,8,-36,0,399,0,-60,24,1191,16,528,0,2,-1,?
2017-03-21 14:13:36.429000,600,16,10,0,-579,24,-619,8,114,8,468,8,-271,0,221,8,1492,8,-53,0,389,0,-68,24,1187,16,521,0,2,-1,?
2017-03-21 14:13:36.436000,608,16,9,0,-580,24,-617,8,115,8,468,8,-264,0,234,8,1504,8,-40,0,402,0,-56,24,1191,16,521,0,2,-1,?
2017-03-21 14:13:36.444000,615,16,6,0,-577,24,-607,8,118,8,468,8,-247,0,249,8,1512,8,-18,0,422,0,-41,24,1200,16,527,0,2,-1,?
2017-03-21 14:13:36.451000,611,16,8,0,-573,24,-609,8,116,8,464,8,-245,0,245,8,1507,8,-20,0,423,0,-41,24,1209,16,527,0,2,-1,?
2017-03-21 14:13:36.460000,605,16,8,0,-574,24,-612,8,115,8,463,8,-267,0,225,8,1494,8,-42,0,396,0,-58,24,1197,16,522,0,2,-1,?
2017-03-21 14:13:36.467000,600,16,7,0,-582,24,-614,8,114,8,466,8,-282,0,214,8,1483,8,-55,0,379,0,-74,24,1180,16,520,0,2,-1,?
2017-03-21 14:13:36.474000,601,16,5,0,-586,24,-611,8,111,8,467,8,-266,0,234,8,1495,8,-37,0,397,0,-62,24,1189,16,522,0,2,-1,?
2017-03-21 14:13:36.482000,613,16,5,0,-578,24,-609,8,116,8,467,8,-242,0,256,8,1519,8,-12,0,426,0,-34,24,1211,16,527,0,2,-1,?
2017-03-21 14:13:36.490000,612,16,9,0,-573,24,-609,8,120,8,470,8,-251,0,246,8,1511,8,-24,0,416,0,-39,24,1207,16,528,0,2,-1,?
2017-03-21 14:13:36.498000,597,16,11,0,-574,24,-608,8,114,8,469,8,-277,0,224,8,1484,8,-58,0,382,0,-71,24,1182,16,520,0,2,-1,?
2017-03-21 14:13:36.506000,600,16,7,0,-574,24,-610,8,109,8,465,8,-279,0,219,8,1485,8,-51,0,385,0,-75,24,1182,16,521,0,2,-1,?
2017-03-21 14:13:36.514000,615,16,5,0,-570,24,-613,8,115,8,466,8,-255,0,237,8,1510,8,-19,0,417,0,-47,24,1201,16,527,0,2,-1,?
2017-03-21 14:13:36.521000,615,16,5,0,-568,24,-614,8,118,8,470,8,-242,0,252,8,1517,8,-15,0,422,0,-39,24,1202,16,526,0,2,-1,?
2017-03-21 14:13:36.529000,606,16,6,0,-571,24,-612,8,111,8,471,8,-261,0,233,8,1500,8,-36,0,404,0,-61,24,1191,16,526,0,2,-1,?
2017-03-21 14:13:36.538000,603,16,5,0,-577,24,-614,8,112,8,465,8,-270,0,215,8,1494,8,-45,0,395,0,-68,24,1188,16,524,0,2,-1,?
2017-03-21 14:13:36.546000,611,16,3,0,-576,24,-616,8,115,8,464,8,-256,0,232,8,1506,8,-33,0,409,0,-51,24,1194,16,522,0,2,-1,?
2017-03-21 14:13:36.553000,614,16,3,0,-575,24,-611,8,117,8,468,8,-251,0,248,8,1507,8,-21,0,420,0,-41,24,1197,16,524,0,2,-1,?
2017-03-21 14:13:36.562000,609,16,7,0,-578,24,-612,8,118,8,465,8,-262,0,240,8,1495,8,-29,0,404,0,-51,24,1193,16,526,0,2,-1,?
2017-03-21 14:13:36.568000,608,16,9,0,-577,24,-618,8,116,8,462,8,-273,0,226,8,1489,8,-47,0,388,0,-63,24,1187,16,525,0,2,-1,?
2017-03-21 14:13:36.577000,613,16,3,0,-573,24,-612,8,113,8,466,8,-264,0,230,8,1499,8,-39,0,399,0,-58,24,1189,16,519,0,2,-1,?
2017-03-21 14:13:36.585000,612,16,2,0,-569,24,-610,8,115,8,468,8,-247,0,245,8,1515,8,-19,0,419,0,-41,24,1201,16,518,0,2,-1,?
2017-03-21 14:13:36.592000,610,16,5,0,-569,24,-613,8,119,8,469,8,-248,0,246,8,1514,8,-23,0,417,0,-39,24,1203,16,524,0,2,-1,?
2017-03-21 14:13:36.600000,610,16,1,0,-577,24,-613,8,116,8,471,8,-262,0,231,8,1500,8,-42,0,396,0,-55,24,1188,16,523,0,2,-1,?
2017-03-21 14:13:36.607000,609,16,3,0,-579,24,-612,8,111,8,468,8,-278,0,219,8,1488,8,-49,0,385,0,-69,24,1181,16,516,0,2,-1,?
2017-03-21 14:13:36.615000,610,16,8,0,-577,24,-612,8,112,8,467,8,-271,0,232,8,1494,8,-40,0,397,0,-59,24,1193,16,523,0,2,-1,?
2017-03-21 14:13:36.623000,615,16,7,0,-576,24,-611,8,116,8,466,8,-242,0,255,8,1515,8,-18,0,422,0,-30,24,1208,16,528,0,2,-1,?
2017-03-21 14:13:36.631000,613,16,6,0,-575,24,-613,8,114,8,464,8,-240,0,250,8,1516,8,-17,0,428,0,-28,24,1207,16,520,0,2,-1,?
2017-03-21 14:13:36.639000,606,16,9,0,-577,24,-615,8,111,8,464,8,-272,0,227,8,1488,8,-48,0,398,0,-59,24,1191,16,520,0,2,-1,?
2017-03-21 14:13:36.648000,607,16,9,0,-575,8,-615,8,114,8,465,8,-289,0,213,8,1475,8,-58,0,381,0,-77,24,1184,16,520,0,2,-1,?
2017-03-21 14:13:36.654000,613,16,7,0,-574,8,-619,24,118,8,463,8,-269,0,226,8,1498,8,-31,0,408,0,-53,24,1197,16,520,0,2,-1,?
2017-03-21 14:13:36.662000,616,16,8,0,-580,8,-618,24,114,8,465,8,-244,0,252,8,1518,8,-11,0,431,0,-28,24,1211,16,522,0,2,-1,?
2017-03-21 14:13:36.670000,614,16,8,0,-582,8,-613,24,113,8,470,16,-253,0,250,8,1508,8,-23,0,414,0,-39,24,1204,16,523,0,2,-1,?
2017-03-21 14:13:36.679000,604,16,5,0,-580,8,-614,24,118,8,469,16,-275,8,223,8,1488,8,-42,0,387,0,-65,24,1182,16,521,0,2,-1,?
2017-03-21 14:13:36.686000,604,16,1,0,-577,8,-616,24,116,8,465,16,-271,8,220,8,1490,8,-38,0,397,0,-64,24,1184,16,524,0,2,-1,?
2017-03-21 14:13:36.693000,613,16,5,0,-577,8,-615,24,115,8,467,16,-245,8,245,8,1511,24,-20,0,423,0,-41,24,1203,16,532,0,2,-1,?
2017-03-21 14:13:36.701000,612,16,6,0,-579,8,-609,24,119,8,470,16,-242,8,251,8,1515,24,-25,16,416,0,-44,24,1201,16,530,0,2,-1,?
2017-03-21 14:13:36.709000,609,16,-1,0,-580,8,-608,24,114,8,469,16,-268,8,229,8,1493,24,-47,16,397,8,-63,24,1190,16,522,0,2,-1,?
2017-03-21 14:13:36.717000,609,16,4,0,-579,8,-611,24,111,8,466,16,-274,8,227,8,1491,24,-44,16,398,8,-62,16,1187,16,520,0,2,-1,?
2017-03-21 14:13:36.725000,608,16,15,0,-576,8,-613,24,119,8,471,16,-253,8,247,8,1507,24,-26,16,408,8,-46,16,1199,24,527,0,2,-1,?
2017-03-21 14:13:36.733000,611,16,11,0,-577,8,-615,24,114,8,467,16,-241,8,251,8,1508,24,-25,24,415,8,-41,16,1209,24,524,0,2,-1,?
2017-03-21 14:13:36.740000,612,16,5,0,-579,8,-617,24,110,8,463,16,-255,8,230,8,1494,24,-40,24,404,24,-59,16,1194,24,520,0,2,-1,?
2017-03-21 14:13:36.748000,605,16,7,0,-579,8,-616,24,114,8,466,16,-272,8,217,8,1485,24,-39,24,393,24,-64,16,1186,24,524,0,2,-1,?
2017-03-21 14:13:36.756000,607,16,7,0,-579,8,-617,24,111,8,465,16,-263,8,232,8,1497,24,-24,24,405,24,-48,16,1203,24,527,0,2,-1,?
2017-03-21 14:13:36.765000,615,16,11,0,-575,8,-615,24,114,8,470,16,-247,8,251,8,1515,24,-19,24,425,24,-36,16,1209,24,525,0,2,-1,?
2017-03-21 14:13:36.772000,613,16,12,0,-577,8,-613,24,119,8,468,16,-249,8,248,8,1519,24,-30,24,419,24,-41,16,1200,24,522,0,2,-1,?
2017-03-21 14:13:36.779000,604,16,10,0,-579,8,-615,24,118,8,461,16,-268,8,232,8,1501,24,-47,24,396,24,-62,16,1189,24,520,0,2,-1,?
2017-03-21 14:13:36.787000,606,16,8,0,-576,8,-616,24,114,8,465,16,-285,8,216,8,1485,24,-46,24,396,24,-70,16,1184,24,524,0,2,-1,?
2017-03-21 14:13:36.795000,614,16,4,0,-579,8,-611,24,111,8,471,16,-272,8,222,8,1491,24,-21,24,411,24,-50,16,1195,24,524,0,2,-1,?
2017-03-21 14:13:36.803000,616,16,3,0,-576,8,-607,24,111,8,473,16,-240,8,248,8,1512,24,-7,24,425,24,-30,16,1210,24,520,0,2,-1,?
2017-03-21 14:13:36.811000,613,16,6,0,-574,8,-613,24,115,8,471,16,-239,8,251,8,1517,24,-25,24,422,24,-36,16,1209,24,520,0,2,-1,?
2017-03-21 14:13:36.820000,607,16,7,0,-581,8,-617,24,115,8,467,16,-268,8,224,8,1498,24,-51,24,393,24,-62,16,1184,24,520,0,2,-1,?
2017-03-21 14:13:36.827000,603,16,4,0,-577,8,-614,24,109,8,468,16,-279,8,210,8,1489,24,-43,24,385,24,-68,16,1178,24,520,0,2,-1,?
2017-03-21 14:13:36.835000,609,16,4,0,-570,8,-609,24,109,8,471,16,-252,8,239,8,1509,24,-16,24,414,24,-48,16,1204,24,523,0,2,-1,?
2017-03-21 14:13:36.843000,613,16,6,0,-575,8,-615,24,118,8,467,16,-242,8,260,8,1521,24,-20,24,425,24,-37,16,1211,24,523,0,2,-1,?
2017-03-21 14:13:36.850000,608,16,9,0,-581,8,-625,24,122,8,463,16,-264,8,238,8,1502,24,-44,24,401,24,-57,16,1195,24,523,0,2,-1,?
2017-03-21 14:13:36.858000,606,16,7,0,-580,8,-614,24,116,8,463,16,-273,8,218,8,1487,24,-44,24,387,24,-68,16,1189,24,524,0,2,-1,?
2017-03-21 14:13:36.865000,607,16,8,0,-575,8,-604,24,114,8,469,16,-268,8,229,8,1498,24,-29,24,401,24,-54,16,1198,24,524,0,2,-1,?
2017-03-21 14:13:36.873000,607,16,13,0,-576,8,-615,24,118,8,469,16,-261,8,244,8,1514,24,-23,24,412,24,-41,16,1204,24,521,0,2,-2,?
2017-03-21 14:13:36.881000,606,16,12,0,-582,8,-622,24,118,8,466,16,-254,8,237,8,1506,24,-25,24,406,24,-47,16,1198,24,525,0,2,-1,?
2017-03-21 14:13:36.889000,604,16,10,0,-579,8,-615,24,114,8,471,16,-261,8,222,8,1484,24,-34,24,400,24,-59,16,1191,24,530,0,2,-1,?
2017-03-21 14:13:36.897000,605,16,13,0,-577,8,-612,24,108,8,470,16,-263,8,230,8,1494,24,-36,24,401,24,-53,16,1195,24,525,0,2,-1,?
2017-03-21 14:13:36.905000,610,16,10,0,-578,8,-616,24,108,8,465,16,-247,8,249,8,1517,24,-23,24,411,24,-41,16,1200,24,523,0,2,-1,?
2017-03-21 14:13:36.912000,609,16,6,0,-578,8,-617,24,115,8,466,16,-247,8,247,8,1512,24,-22,24,410,24,-46,16,1195,24,525,0,2,-1,?
2017-03-21 14:13:36.920000,604,16,6,0,-580,8,-614,24,118,8,466,16,-264,8,230,8,1493,24,-42,24,394,24,-65,16,1188,24,524,0,2,-1,?
2017-03-21 14:13:36.929000,606,16,6,0,-580,8,-613,24,113,8,463,16,-266,8,218,8,1486,24,-48,24,391,24,-69,16,1191,24,523,0,2,-1,?
2017-03-21 14:13:36.937000,610,16,3,0,-579,8,-615,24,112,8,466,16,-248,8,228,8,1497,24,-30,24,407,24,-48,16,1201,24,521,0,2,-1,?
2017-03-21 14:13:36.945000,612,16,9,0,-579,8,-614,24,120,8,470,16,-233,8,252,8,1520,24,-19,24,425,24,-31,16,1207,24,521,0,2,-1,?
2017-03-21 14:13:36.952000,611,16,15,0,-579,8,-612,24,120,8,469,16,-249,8,250,8,1519,24,-25,24,420,24,-41,16,1200,24,523,0,2,-1,?
2017-03-21 14:13:36.960000,606,16,8,0,-580,8,-614,24,117,8,469,16,-273,8,222,8,1492,24,-45,24,391,24,-66,16,1182,24,522,0,2,-1,?
2017-03-21 14:13:36.968000,604,16,3,0,-579,8,-613,24,118,8,469,16,-279,8,207,8,1483,24,-55,24,383,24,-75,16,1182,24,520,0,2,-1,?
2017-03-21 14:13:36.976000,606,16,10,0,-578,8,-611,24,116,8,466,16,-258,8,229,8,1505,24,-33,24,406,24,-51,16,1198,24,524,0,2,-1,?
2017-03-21 14:13:36.984000,610,16,12,0,-575,8,-610,24,113,8,466,16,-240,8,259,8,1523,24,-10,24,424,24,-30,16,1207,24,526,0,2,-1,?
2017-03-21 14:13:36.992000,612,16,7,0,-573,8,-611,24,115,8,469,16,-254,8,250,8,1512,24,-24,24,415,24,-45,16,1202,24,521,0,2,-1,?
2017-03-21 14:13:36.999000,608,16,3,0,-581,8,-613,24,112,8,465,16,-276,8,224,8,1491,24,-49,24,387,24,-68,16,1187,24,520,0,2,-1,?
2017-03-21 14:13:37.007000,606,16,7,0,-583,8,-614,24,108,8,462,16,-270,8,223,8,1491,24,-47,24,382,24,-67,16,1185,24,524,0,2,-1,?
2017-03-21 14:13:37.015000,609,16,6,0,-574,8,-612,24,116,8,466,16,-245,8,240,8,1513,24,-24,24,410,24,-50,16,1199,24,523,0,2,-1,?
2017-03-21 14:13:37.023000,613,16,0,0,-572,8,-611,24,123,8,469,16,-238,8,244,8,1516,24,-18,24,418,24,-40,16,1205,24,519,0,2,-1,?
2017-03-21 14:13:37.030000,608,16,2,0,-578,8,-613,24,115,8,468,16,-259,8,230,8,1493,24,-39,24,400,24,-48,16,1195,24,522,0,2,-1,?
2017-03-21 14:13:37.037000,606,16,7,0,-580,8,-613,24,106,8,468,16,-265,8,227,8,1490,24,-43,24,396,24,-56,16,1191,24,522,0,2,-1,?
2017-03-21 14:13:37.046000,609,16,6,0,-579,8,-618,24,114,8,470,16,-251,8,235,8,1507,24,-27,24,410,24,-48,16,1204,24,522,0,2,-1,?
2017-03-21 14:13:37.054000,610,16,10,0,-580,8,-614,24,124,8,467,16,-253,8,234,8,1506,24,-27,24,410,24,-45,16,1202,24,523,0,2,-1,?
2017-03-21 14:13:37.062000,609,16,10,0,-581,8,-606,24,119,8,467,16,-267,8,228,8,1496,24,-42,24,394,24,-57,16,1188,24,522,0,2,-1,?
2017-03-21 14:13:37.070000,609,16,0,0,-581,8,-616,24,109,8,471,16,-272,8,223,8,1493,24,-46,24,394,24,-65,16,1189,24,523,0,2,-1,?
2017-03-21 14:13:37.078000,609,16,1,0,-584,8,-622,24,111,8,470,16,-256,8,233,8,1502,24,-34,24,410,24,-55,16,1200,24,523,0,2,-1,?
2017-03-21 14:13:37.085000,612,16,11,0,-583,8,-614,24,117,8,470,16,-246,8,246,8,1512,24,-23,24,420,24,-43,16,1208,24,525,0,2,-1,?
2017-03-21 14:13:37.093000,613,16,10,0,-572,8,-612,24,118,8,469,16,-258,8,238,8,1506,24,-22,24,414,24,-44,16,1205,24,524,0,2,-1,?
2017-03-21 14:13:37.100000,609,16,1,0,-576,8,-613,24,115,8,466,16,-271,8,222,8,1493,24,-35,24,391,24,-60,16,1186,24,518,0,2,-1,?
2017-03-21 14:13:37.108000,606,16,0,0,-590,8,-612,24,108,8,470,16,-274,8,217,8,1489,24,-50,24,383,24,-74,16,1181,24,518,0,2,-1,?
2017-03-21 14:13:37.116000,606,16,7,0,-583,8,-616,24,109,8,473,16,-262,8,230,8,1503,24,-40,24,404,24,-58,16,1195,24,522,0,2,-1,?
2017-03-21 14:13:37.124000,611,16,10,0,-572,8,-616,24,118,8,470,16,-243,8,248,8,1525,24,-16,24,423,24,-31,16,1206,24,525,0,2,-1,?
2017-03-21 14:13:37.131000,613,16,8,8,-576,8,-611,24,117,8,469,16,-247,8,247,8,1520,24,-19,24,417,24,-39,16,1203,24,525,0,2,-1,?
2017-03-21 14:13:37.140000,605,16,3,8,-580,8,-611,24,110,8,468,16,-269,8,231,8,1491,24,-49,24,390,24,-70,16,1187,24,518,0,2,-1,?
2017-03-21 14:13:37.147000,602,16,-1,8,-573,8,-614,24,112,8,469,16,-278,8,221,8,1481,24,-57,24,379,24,-75,16,1182,24,514,0,2,-1,?
2017-03-21 14:13:37.156000,609,16,2,8,-575,8,-610,0,119,8,472,16,-261,8,235,8,1503,24,-31,24,406,24,-51,16,1193,24,523,0,2,-1,?
2017-03-21 14:13:37.164000,612,16,10,8,-581,8,-611,0,116,0,476,16,-246,8,254,8,1517,24,-13,24,429,24,-40,16,1205,24,530,0,2,-1,?
2017-03-21 14:13:37.171000,610,16,12,8,-577,8,-617,0,111,0,478,16,-262,8,240,8,1503,24,-30,24,410,24,-54,16,1201,24,525,0,2,-1,?
2017-03-21 14:13:37.179000,606,16,5,8,-579,8,-617,0,112,0,472,16,-277,0,219,8,1489,24,-54,24,383,24,-66,16,1188,24,516,0,2,-1,?
2017-03-21 14:13:37.187000,605,16,0,8,-582,8,-615,0,114,0,468,16,-271,0,225,0,1494,24,-44,24,397,24,-60,16,1189,24,518,0,2,-1,?
2017-03-21 14:13:37.194000,610,16,2,8,-575,8,-613,0,112,0,468,16,-257,0,241,0,1507,0,-21,24,418,24,-48,16,1201,24,526,0,2,-1,?
2017-03-21 14:13:37.203000,611,16,5,8,-571,8,-610,0,111,0,466,16,-251,0,239,0,1504,0,-27,16,404,24,-50,16,1202,24,527,0,2,-1,?
2017-03-21 14:13:37.211000,607,16,7,8,-577,8,-613,0,114,0,467,16,-261,0,228,0,1489,0,-50,16,388,24,-62,16,1192,24,522,0,2,-1,?
2017-03-21 14:13:37.217000,607,16,7,8,-580,8,-614,0,116,0,474,16,-264,0,233,0,1497,0,-44,16,401,24,-59,16,1190,24,523,0,2,-1,?
2017-03-21 14:13:37.226000,609,16,8,8,-575,8,-611,0,111,0,477,16,-251,0,247,0,1514,0,-20,16,414,24,-43,16,1202,8,530,0,2,-1,?
2017-03-21 14:13:37.233000,611,16,9,8,-576,8,-612,0,108,0,472,16,-252,0,245,0,1508,0,-18,0,410,24,-42,16,1206,8,530,0,2,-1,?
2017-03-21 14:13:37.241000,608,16,8,8,-581,8,-611,0,112,0,470,16,-267,0,232,0,1494,0,-39,0,398,16,-61,16,1188,8,522,0,2,-1,?
2017-03-21 14:13:37.249000,602,16,7,8,-575,8,-609,0,112,0,471,16,-279,0,225,0,1488,0,-53,0,388,16,-70,24,1180,8,519,0,2,-1,?
2017-03-21 14:13:37.256000,604,16,7,8,-574,8,-615,0,111,0,466,16,-265,0,234,0,1497,0,-39,0,395,16,-51,24,1192,8,517,0,2,-1,?
2017-03-21 14:13:37.265000,613,16,10,8,-578,8,-618,0,114,0,468,16,-244,0,247,0,1513,0,-16,0,421,16,-27,24,1203,8,522,0,2,-1,?
2017-03-21 14:13:37.272000,613,16,13,8,-578,8,-611,0,114,0,473,16,-249,0,244,0,1510,0,-19,0,424,16,-34,24,1204,8,526,0,2,-1,?
2017-03-21 14:13:37.280000,607,16,9,8,-580,8,-607,0,112,0,468,16,-264,0,231,0,1493,0,-40,0,395,16,-58,24,1186,8,521,0,2,-1,?
2017-03-21 14:13:37.288000,604,16,3,8,-582,8,-613,0,115,0,460,16,-277,0,215,0,1484,0,-50,0,384,16,-69,24,1177,8,521,0,2,-1,?
2017-03-21 14:13:37.297000,607,16,5,8,-580,8,-612,0,117,0,468,16,-269,0,224,0,1496,0,-38,0,403,16,-57,24,1193,8,526,0,2,-1,?
2017-03-21 14:13:37.303000,614,16,9,8,-576,8,-610,0,111,0,475,16,-244,0,254,0,1517,0,-17,0,425,16,-36,24,1207,8,524,0,2,-1,?
2017-03-21 14:13:37.312000,617,16,10,8,-575,8,-617,0,114,0,467,16,-248,0,246,0,1512,0,-16,0,420,16,-35,24,1199,8,524,0,2,-1,?
2017-03-21 14:13:37.319000,608,16,9,8,-579,8,-616,0,117,0,461,16,-277,0,212,0,1484,0,-40,0,390,16,-61,24,1184,8,522,0,2,-1,?
2017-03-21 14:13:37.328000,604,16,6,8,-579,8,-612,0,112,0,469,16,-282,0,211,0,1483,0,-47,0,387,16,-70,24,1189,8,523,0,2,-1,?
2017-03-21 14:13:37.335000,611,16,8,8,-578,8,-610,0,115,0,476,16,-258,0,242,0,1510,0,-25,0,413,16,-43,24,1205,8,529,0,2,-1,?
2017-03-21 14:13:37.342000,610,16,10,8,-579,8,-609,0,120,0,474,16,-247,0,254,0,1518,0,-18,0,424,16,-27,24,1206,8,528,0,2,-1,?
2017-03-21 14:13:37.350000,604,16,5,8,-580,8,-610,0,113,0,470,16,-262,0,231,0,1499,0,-41,0,408,16,-51,24,1192,8,522,0,2,-1,?
2017-03-21 14:13:37.358000,606,16,2,8,-579,8,-618,0,108,0,465,16,-270,0,216,0,1491,0,-48,0,392,16,-68,24,1187,8,517,0,2,-1,?
2017-03-21 14:13:37.367000,610,16,10,8,-575,8,-625,0,115,0,464,16,-259,0,228,0,1504,0,-30,0,403,16,-52,24,1199,8,522,0,2,-1,?
2017-03-21 14:13:37.374000,612,16,12,8,-573,8,-619,0,118,0,469,16,-252,0,242,0,1508,0,-21,0,418,16,-37,24,1205,8,526,0,2,-1,?
2017-03-21 14:13:37.382000,611,16,4,8,-577,8,-611,0,115,0,469,16,-259,0,237,0,1496,0,-30,0,403,16,-52,24,1191,8,521,0,2,-1,?
2017-03-21 14:13:37.390000,605,16,6,8,-578,8,-610,0,113,0,466,16,-270,0,223,0,1490,0,-41,0,388,16,-72,24,1184,8,521,0,2,-1,?
2017-03-21 14:13:37.397000,604,16,11,8,-579,8,-610,0,116,0,466,16,-265,0,230,0,1500,0,-35,0,400,16,-61,24,1193,8,526,0,2,-1,?
2017-03-21 14:13:37.405000,611,16,9,8,-576,8,-609,0,117,0,467,16,-253,0,252,0,1513,0,-19,0,424,16,-39,24,1201,8,525,0,2,-1,?
2017-03-21 14:13:37.413000,613,16,4,8,-575,8,-613,0,118,0,468,16,-253,0,251,0,1513,0,-17,0,421,16,-39,24,1203,8,519,0,2,-1,?
2017-03-21 14:13:37.421000,608,16,2,8,-582,8,-620,0,115,0,469,16,-267,0,226,0,1498,0,-35,0,395,16,-55,24,1194,8,521,0,2,-1,?
2017-03-21 14:13:37.429000,605,16,5,8,-583,8,-617,0,111,0,468,16,-283,0,211,0,1485,0,-51,0,387,16,-65,24,1186,8,524,0,2,-1,?
2017-03-21 14:13:37.436000,604,16,6,8,-574,8,-609,0,115,0,465,16,-269,0,227,0,1496,0,-39,0,404,16,-58,24,1192,8,521,0,2,-1,?
2017-03-21 14:13:37.445000,611,16,7,8,-571,8,-608,0,120,0,467,16,-241,0,252,0,1516,0,-10,0,424,16,-37,24,1203,8,518,0,2,-1,?
2017-03-21 14:13:37.452000,614,16,10,8,-575,8,-613,0,118,0,470,16,-244,0,252,0,1516,0,-16,0,420,16,-31,24,1205,8,524,0,2,-1,?
2017-03-21 14:13:37.460000,605,16,12,8,-578,8,-613,0,114,0,471,16,-270,0,226,0,1494,0,-50,0,394,16,-57,24,1191,8,525,0,2,-1,?
2017-03-21 14:13:37.468000,604,16,13,8,-576,8,-611,0,113,0,468,16,-284,0,209,0,1480,0,-50,0,388,16,-74,24,1182,8,520,0,2,-1,?
2017-03-21 14:13:37.476000,609,16,11,8,-577,8,-613,0,111,0,466,16,-269,0,230,0,1501,0,-19,0,408,16,-50,24,1189,8,523,0,2,-1,?
2017-03-21 14:13:37.483000,611,16,10,8,-578,8,-617,0,112,0,469,16,-245,0,260,0,1523,0,-6,0,422,16,-31,24,1205,8,526,0,2,-1,?
2017-03-21 14:13:37.492000,613,16,12,8,-573,8,-617,0,118,0,469,16,-251,0,245,0,1508,0,-24,0,416,16,-48,24,1204,8,519,0,2,-1,?
2017-03-21 14:13:37.500000,608,16,9,8,-577,8,-615,0,117,0,466,16,-273,0,218,0,1484,0,-42,0,390,16,-71,24,1184,8,518,0,2,-1,?
2017-03-21 14:13:37.508000,603,16,8,8,-580,8,-616,0,108,0,467,16,-271,0,221,0,1489,0,-37,0,392,16,-63,24,1188,8,529,0,2,-1,?
2017-03-21 14:13:37.514000,612,16,11,8,-576,8,-616,0,109,0,467,16,-254,0,244,0,1511,0,-19,0,421,16,-42,24,1207,8,533,0,2,-1,?
2017-03-21 14:13:37.522000,617,16,10,8,-576,8,-617,0,118,0,464,16,-252,0,248,0,1516,0,-22,0,416,16,-46,24,1201,8,525,0,2,-1,?
2017-03-21 14:13:37.530000,607,16,2,8,-577,8,-619,0,118,0,468,16,-270,0,227,0,1495,0,-41,0,393,16,-67,24,1188,8,518,0,2,-1,?
2017-03-21 14:13:37.539000,603,16,4,8,-577,8,-612,0,113,0,469,16,-272,0,225,0,1491,0,-36,0,403,16,-64,24,1192,8,523,0,2,-1,?
2017-03-21 14:13:37.547000,611,16,12,8,-576,8,-607,0,115,0,467,16,-255,0,244,0,1511,0,-25,0,415,16,-45,24,1203,8,531,0,2,-1,?
2017-03-21 14:13:37.554000,611,16,10,8,-576,8,-611,0,119,0,470,16,-248,0,249,0,1517,0,-30,0,408,16,-42,24,1201,8,528,0,2,-1,?
2017-03-21 14:13:37.561000,604,16,4,8,-578,8,-615,0,117,0,468,16,-264,0,234,0,1497,0,-39,0,400,16,-54,24,1191,8,519,0,2,-1,?
2017-03-21 14:13:37.569000,604,16,5,8,-577,8,-616,0,112,0,464,16,-278,0,217,0,1481,0,-43,0,398,16,-65,24,1189,8,520,0,2,-1,?
2017-03-21 14:13:37.577000,609,16,10,8,-577,8,-615,0,109,0,465,16,-266,0,226,0,1496,0,-35,0,407,16,-58,24,1192,8,524,0,2,-1,?
2017-03-21 14:13:37.585000,608,16,10,8,-580,8,-613,0,110,0,469,16,-244,0,250,0,1517,0,-21,0,425,16,-40,24,1205,8,524,0,2,-1,?
2017-03-21 14:13:37.593000,605,16,10,8,-582,8,-613,0,113,0,471,16,-250,0,253,0,1510,0,-22,0,421,16,-40,24,1209,8,523,0,2,-1,?
2017-03-21 14:13:37.600000,607,16,7,8,-585,8,-615,0,113,0,467,16,-273,0,232,0,1492,0,-41,0,394,16,-58,24,1190,8,521,0,2,-1,?
2017-03-21 14:13:37.608000,605,16,4,8,-581,8,-618,0,111,0,463,16,-281,0,215,0,1485,0,-45,0,388,16,-68,24,1179,8,519,0,2,-1,?
2017-03-21 14:13:37.617000,607,16,6,8,-574,8,-617,0,111,0,463,16,-265,0,227,0,1495,0,-26,0,411,16,-52,24,1194,8,525,0,2,-1,?
2017-03-21 14:13:37.624000,615,16,9,8,-578,8,-615,0,116,0,469,16,-243,0,256,0,1517,0,-7,0,429,16,-27,24,1212,8,531,0,2,-1,?
2017-03-21 14:13:37.632000,609,8,8,8,-585,8,-615,0,115,0,473,16,-244,0,256,0,1523,0,-22,0,421,16,-34,24,1209,8,528,0,2,-1,?
2017-03-21 14:13:37.640000,596,8,3,0,-582,8,-614,0,110,0,468,16,-268,0,226,0,1499,0,-53,0,395,16,-64,24,1188,8,517,0,2,-1,?
2017-03-21 14:13:37.647000,599,8,5,0,-579,8,-616,0,110,0,466,16,-282,0,216,0,1483,0,-49,0,394,16,-70,24,1188,8,515,16,2,-1,?
2017-03-21 14:13:37.655000,612,8,8,0,-579,8,-618,0,115,0,469,16,-258,0,238,0,1504,0,-20,0,412,16,-46,24,1209,8,522,16,2,-1,?
2017-03-21 14:13:37.664000,617,8,8,0,-578,8,-608,24,116,0,467,16,-237,0,258,0,1524,0,-17,0,419,16,-35,24,1208,8,526,16,2,-1,?
2017-03-21 14:13:37.671000,612,8,8,0,-576,8,-605,24,117,24,467,16,-263,0,240,0,1504,0,-40,0,408,16,-53,24,1191,8,527,16,2,-1,?
2017-03-21 14:13:37.679000,603,8,11,0,-579,8,-614,24,119,24,466,16,-279,0,217,0,1481,0,-45,0,396,16,-65,24,1187,8,523,16,2,-1,?
2017-03-21 14:13:37.688000,606,8,10,0,-574,8,-615,24,115,24,469,16,-261,8,229,0,1495,0,-30,0,404,16,-54,24,1197,8,523,16,2,-1,?
2017-03-21 14:13:37.695000,613,8,6,0,-569,8,-611,24,110,24,471,16,-251,8,249,24,1515,0,-22,0,416,16,-43,24,1203,8,523,16,2,-1,?
2017-03-21 14:13:37.703000,608,8,3,0,-577,8,-612,24,111,24,467,16,-262,8,241,24,1507,24,-29,0,410,16,-55,24,1198,8,523,16,2,-1,?
2017-03-21 14:13:37.711000,603,8,2,0,-581,8,-613,24,115,24,464,16,-274,8,222,24,1489,24,-39,0,402,16,-65,24,1192,8,524,16,2,-1,?
2017-03-21 14:13:37.719000,609,8,5,0,-576,8,-612,24,117,24,465,16,-268,8,230,24,1499,24,-29,0,408,8,-50,24,1196,8,520,16,2,-1,?
2017-03-21 14:13:37.726000,614,8,10,0,-578,8,-615,24,113,24,466,16,-253,8,248,24,1517,24,-19,0,417,8,-39,16,1201,8,521,16,2,-1,?
2017-03-21 14:13:37.733000,609,8,12,0,-584,8,-617,24,109,24,463,16,-251,8,246,24,1514,24,-30,0,413,8,-49,16,1195,24,524,16,2,-1,?
2017-03-21 14:13:37.741000,606,8,8,0,-579,8,-613,24,108,24,463,16,-262,8,231,24,1496,24,-44,24,393,8,-61,16,1188,24,524,16,2,-1,?
2017-03-21 14:13:37.749000,607,8,6,0,-572,8,-613,24,113,24,467,16,-274,8,215,24,1484,24,-41,24,390,24,-61,16,1185,24,522,16,2,-1,?
2017-03-21 14:13:37.757000,611,8,7,0,-580,8,-612,24,119,24,466,16,-268,8,227,24,1497,24,-27,24,410,24,-51,16,1191,24,520,16,2,-1,?
2017-03-21 14:13:37.765000,617,8,5,0,-582,8,-610,24,118,24,468,16,-247,8,252,24,1521,24,-15,24,424,24,-40,16,1205,24,524,16,2,-1,?
2017-03-21 14:13:37.773000,613,8,8,0,-575,8,-613,24,113,24,469,16,-248,8,249,24,1515,24,-23,24,413,24,-45,16,1206,24,526,16,2,-1,?
2017-03-21 14:13:37.780000,603,8,9,0,-576,8,-614,24,111,24,465,16,-270,8,228,24,1490,24,-48,24,386,24,-60,16,1188,24,519,16,2,-1,?
2017-03-21 14:13:37.789000,601,8,4,0,-577,8,-615,24,112,24,466,16,-283,8,215,24,1484,24,-56,24,383,24,-65,16,1185,24,516,16,2,-1,?
2017-03-21 14:13:37.796000,609,8,4,0,-577,8,-614,24,113,24,471,16,-267,8,228,24,1502,24,-30,24,404,24,-48,16,1201,24,521,16,2,-1,?
2017-03-21 14:13:37.804000,612,8,12,0,-577,8,-612,24,116,24,476,16,-238,8,252,24,1520,24,-11,24,419,24,-34,16,1207,24,526,16,2,-1,?
2017-03-21 14:13:37.812000,606,8,11,0,-575,8,-613,24,114,24,474,16,-246,8,249,24,1513,24,-26,24,412,24,-48,16,1201,24,523,16,2,-1,?
2017-03-21 14:13:37.819000,602,8,1,0,-577,8,-616,24,108,24,466,16,-276,8,225,24,1489,24,-50,24,388,24,-68,16,1186,24,517,16,2,-1,?
2017-03-21 14:13:37.827000,604,8,0,0,-579,8,-619,24,106,24,467,16,-275,8,222,24,1487,24,-46,24,390,24,-64,16,1188,24,521,16,2,-1,?
2017-03-21 14:13:37.835000,611,8,8,0,-577,8,-613,24,111,24,469,16,-251,8,246,24,1511,24,-23,24,414,24,-45,16,1202,24,527,16,2,-1,?
2017-03-21 14:13:37.843000,613,8,11,0,-580,8,-610,24,115,24,467,16,-250,8,247,24,1515,24,-20,24,416,24,-41,16,1200,24,523,16,2,-1,?
2017-03-21 14:13:37.852000,605,8,9,0,-580,8,-615,24,111,24,467,16,-273,8,220,24,1492,24,-41,24,398,24,-53,16,1192,24,516,16,2,-1,?
2017-03-21 14:13:37.859000,605,8,5,0,-578,8,-615,24,108,24,463,16,-272,8,223,24,1492,24,-41,24,398,24,-54,16,1193,24,516,16,2,-1,?
2017-03-21 14:13:37.866000,613,8,4,0,-576,8,-614,24,117,24,464,16,-259,8,244,24,1506,24,-23,24,413,24,-48,16,1198,24,524,16,2,-1,?
2017-03-21 14:13:37.874000,616,8,9,0,-582,8,-616,24,122,24,469,16,-258,8,241,24,1505,24,-26,24,407,24,-50,16,1202,24,526,16,2,-1,?
2017-03-21 14:13:37.882000,612,8,11,0,-585,8,-615,24,113,24,467,16,-265,8,231,24,1497,24,-41,24,394,24,-57,16,1197,24,521,16,2,-1,?
2017-03-21 14:13:37.890000,609,8,4,0,-578,8,-617,24,114,24,468,16,-273,8,224,24,1492,24,-41,24,403,24,-60,16,1187,24,523,16,2,-1,?
2017-03-21 14:13:37.898000,608,8,5,0,-574,8,-615,24,119,24,473,16,-260,8,230,24,1501,24,-28,24,413,24,-52,16,1190,24,522,16,2,-1,?
2017-03-21 14:13:37.905000,612,8,11,0,-576,8,-612,24,114,24,471,16,-247,8,247,24,1514,24,-18,24,416,24,-42,16,1205,24,522,16,2,-1,?
2017-03-21 14:13:37.914000,614,8,9,0,-574,8,-616,24,116,24,466,16,-258,8,245,24,1508,24,-22,24,415,24,-49,16,1202,24,527,16,2,-1,?
2017-03-21 14:13:37.921000,605,8,3,0,-573,8,-617,24,121,24,469,16,-272,8,226,24,1493,24,-39,24,396,24,-64,16,1187,24,523,16,2,-1,?
2017-03-21 14:13:37.929000,601,8,3,0,-578,8,-616,24,111,24,470,16,-274,8,216,24,1489,24,-51,24,385,24,-69,16,1187,24,518,16,2,-1,?
2017-03-21 14:13:37.937000,610,8,2,0,-582,8,-620,24,104,24,466,16,-261,8,228,24,1500,24,-34,24,402,24,-56,16,1195,24,518,16,2,-1,?
2017-03-21 14:13:37.945000,615,8,4,0,-577,8,-614,24,110,24,470,16,-248,8,252,24,1513,24,-12,24,423,24,-35,16,1205,24,518,16,2,-1,?
2017-03-21 14:13:37.953000,612,8,10,0,-570,8,-602,24,115,24,472,16,-251,8,249,24,1509,24,-21,24,420,24,-38,16,1206,24,522,16,2,-1,?
2017-03-21 14:13:37.961000,606,8,2,0,-574,8,-608,24,116,24,464,16,-268,8,218,24,1489,24,-50,24,393,24,-68,16,1190,24,525,16,2,-1,?
2017-03-21 14:13:37.968000,605,8,-6,0,-580,8,-618,24,117,24,468,16,-277,8,210,24,1482,24,-58,24,379,24,-76,16,1181,24,520,16,2,-1,?
2017-03-21 14:13:37.976000,609,8,8,0,-574,8,-612,24,115,24,476,16,-262,8,239,24,1503,24,-34,24,400,24,-51,16,1194,24,520,16,2,-1,?
2017-03-21 14:13:37.984000,614,8,11,0,-570,8,-612,24,112,24,468,16,-247,8,258,24,1516,24,-12,24,421,24,-34,16,1208,24,527,16,2,-1,?
2017-03-21 14:13:37.991000,609,8,0,0,-579,8,-619,24,112,24,465,16,-261,8,236,24,1499,24,-26,24,407,24,-48,16,1202,24,526,16,2,-1,?
2017-03-21 14:13:37.999000,600,8,-1,0,-585,8,-615,24,113,24,470,16,-274,8,217,24,1487,24,-48,24,386,24,-65,16,1185,24,520,16,2,-1,?
2017-03-21 14:13:38.007000,609,8,8,0,-578,8,-611,24,115,24,469,16,-264,8,229,24,1497,24,-41,24,396,24,-57,16,1188,24,526,16,2,-1,?
2017-03-21 14:13:38.015000,620,8,10,0,-574,8,-614,24,117,24,469,16,-254,8,247,24,1508,24,-24,24,413,24,-43,16,1198,24,528,16,2,-1,?
2017-03-21 14:13:38.023000,614,8,5,0,-578,8,-611,24,116,24,471,16,-256,8,242,24,1505,24,-28,24,407,24,-51,16,1195,24,521,16,2,-1,?
2017-03-21 14:13:38.031000,605,8,2,0,-581,8,-613,24,115,24,470,16,-270,8,223,24,1497,24,-40,24,392,24,-63,16,1192,24,522,16,2,-1,?
2017-03-21 14:13:38.038000,607,8,3,0,-580,8,-619,24,114,24,471,16,-266,8,228,24,1503,24,-32,24,397,24,-53,16,1192,24,526,16,2,-1,?
2017-03-21 14:13:38.046000,610,8,7,0,-574,8,-620,24,112,24,472,16,-248,8,248,24,1512,24,-17,24,413,24,-44,16,1198,24,527,16,2,-1,?
2017-03-21 14:13:38.055000,608,8,10,0,-575,8,-614,24,113,24,467,16,-252,8,248,24,1505,24,-21,24,413,24,-49,16,1202,24,523,16,2,-1,?
2017-03-21 14:13:38.062000,604,8,5,0,-581,8,-612,24,111,24,464,16,-268,8,232,24,1496,24,-40,24,397,24,-58,16,1191,24,523,16,2,-1,?
2017-03-21 14:13:38.070000,603,8,0,0,-581,8,-614,24,115,24,467,16,-268,8,221,24,1496,24,-53,24,391,24,-63,16,1185,24,523,16,2,-1,?
2017-03-21 14:13:38.079000,611,8,2,0,-577,8,-613,24,122,24,466,16,-260,8,233,24,1504,24,-40,24,404,24,-56,16,1192,24,520,16,2,-1,?
2017-03-21 14:13:38.086000,617,8,6,0,-575,8,-610,24,120,24,468,16,-253,8,251,24,1515,24,-20,24,420,24,-38,16,1201,24,522,16,2,-1,?
2017-03-21 14:13:38.094000,613,8,4,0,-574,8,-612,24,114,24,470,16,-253,8,245,24,1510,24,-21,24,418,24,-38,16,1200,24,524,16,2,-1,?
2017-03-21 14:13:38.101000,607,8,1,0,-574,8,-612,24,114,24,467,16,-266,8,225,24,1493,24,-40,24,396,24,-61,16,1189,24,519,16,2,-1,?
2017-03-21 14:13:38.109000,603,8,6,0,-573,8,-612,24,116,24,466,16,-284,8,215,24,1483,24,-53,24,382,24,-77,16,1185,24,518,16,2,-1,?
2017-03-21 14:13:38.117000,605,8,7,0,-576,8,-616,24,115,24,465,16,-266,8,232,24,1501,24,-34,24,396,24,-62,16,1192,24,519,16,2,-1,?
2017-03-21 14:13:38.124000,609,8,5,0,-580,8,-616,24,114,24,466,16,-233,8,259,24,1519,24,-9,24,412,24,-37,16,1196,24,521,16,2,-1,?
2017-03-21 14:13:38.132000,616,16,16,0,-572,8,-609,24,116,24,478,16,-257,8,238,24,1505,24,-23,24,420,24,-41,16,1207,24,524,16,2,-1,?
2017-03-21 14:13:38.140000,610,16,16,24,-573,8,-612,24,115,24,471,16,-290,8,204,24,1487,24,-49,24,404,24,-67,16,1199,24,520,16,2,-1,?
2017-03-21 14:13:38.148000,598,16,-2,24,-590,8,-616,24,111,24,454,16,-267,8,220,24,1496,24,-44,24,377,24,-72,16,1172,24,517,16,2,-1,?
2017-03-21 14:13:38.156000,607,16,0,24,-586,24,-611,24,114,24,467,16,-244,8,247,24,1512,24,-23,24,396,24,-49,16,1188,24,524,16,2,-1,?
2017-03-21 14:13:38.164000,619,16,11,24,-571,24,-613,24,118,24,475,16,-250,8,246,24,1513,24,-17,24,422,24,-40,16,1206,24,524,16,2,-1,?
2017-03-21 14:13:38.171000,614,16,6,24,-574,24,-619,24,115,16,466,16,-264,8,230,24,1499,24,-39,24,400,24,-64,16,1186,24,522,16,2,-1,?
2017-03-21 14:13:38.179000,607,16,0,24,-583,24,-614,24,114,16,469,8,-269,8,222,24,1492,24,-50,24,386,24,-70,16,1181,24,522,16,2,-1,?
2017-03-21 14:13:38.187000,610,16,3,24,-584,24,-611,24,117,16,471,8,-260,24,234,24,1501,24,-30,24,407,24,-50,16,1199,24,523,16,2,-1,?
2017-03-21 14:13:38.195000,618,16,9,24,-578,24,-612,24,119,16,468,8,-252,24,245,0,1505,24,-23,24,422,24,-44,16,1203,24,528,16,2,-1,?
2017-03-21 14:13:38.203000,609,16,5,24,-578,24,-610,24,116,16,469,8,-259,24,239,0,1498,8,-40,24,408,24,-59,16,1191,24,527,16,2,-1,?
2017-03-21 14:13:38.210000,594,16,-1,24,-582,24,-612,24,112,16,467,8,-274,24,228,0,1491,8,-49,24,393,24,-69,16,1188,24,520,16,2,-1,?
2017-03-21 14:13:38.218000,599,16,3,24,-577,24,-611,24,113,16,466,8,-267,24,232,0,1500,8,-36,24,401,16,-60,16,1195,24,519,16,2,-1,?
2017-03-21 14:13:38.226000,615,16,5,24,-572,24,-608,24,118,16,469,8,-248,24,246,0,1514,8,-16,24,420,16,-45,8,1202,24,526,16,2,-1,?
2017-03-21 14:13:38.234000,619,16,2,24,-577,24,-612,24,117,16,470,8,-253,24,242,0,1509,8,-15,24,420,16,-45,8,1202,16,528,16,2,-1,?
2017-03-21 14:13:38.242000,608,16,0,24,-581,24,-615,24,110,16,467,8,-268,24,224,0,1494,8,-35,24,395,16,-63,8,1193,16,525,16,2,-1,?
2017-03-21 14:13:38.250000,601,16,4,24,-579,24,-613,24,111,16,466,8,-273,24,213,0,1488,8,-56,24,386,16,-77,8,1186,16,526,16,2,-1,?
2017-03-21 14:13:38.257000,605,16,10,24,-578,24,-614,24,117,16,469,8,-260,24,231,0,1500,8,-44,24,401,16,-61,8,1191,16,525,16,2,-1,?
2017-03-21 14:13:38.265000,613,16,7,24,-575,24,-613,24,119,16,472,8,-243,24,256,0,1520,8,-14,24,418,16,-33,8,1202,16,525,16,2,-1,?
2017-03-21 14:13:38.273000,614,16,5,24,-574,24,-616,24,118,16,472,8,-253,24,245,0,1513,8,-21,24,421,16,-34,8,1204,16,527,16,2,-1,?
2017-03-21 14:13:38.281000,602,16,3,24,-579,24,-622,24,116,16,465,8,-275,24,222,0,1488,8,-52,24,402,16,-64,8,1190,16,519,16,2,-1,?
2017-03-21 14:13:38.289000,599,16,2,24,-575,24,-621,24,115,16,462,8,-280,24,217,0,1482,8,-56,24,386,16,-77,8,1183,16,520,16,2,-1,?
2017-03-21 14:13:38.296000,610,16,3,24,-571,24,-613,24,117,16,466,8,-263,24,231,0,1503,8,-26,24,402,16,-55,8,1192,16,527,16,2,-1,?
2017-03-21 14:13:38.305000,614,16,5,24,-575,24,-605,24,116,16,470,8,-244,24,250,0,1514,8,-5,24,426,16,-40,8,1201,16,526,16,2,-1,?
2017-03-21 14:13:38.312000,610,16,5,24,-574,24,-609,24,111,16,469,8,-256,24,242,0,1499,8,-21,24,415,16,-56,8,1203,16,521,16,2,-1,?
2017-03-21 14:13:38.320000,607,16,4,24,-571,24,-617,24,115,16,465,8,-276,24,221,0,1485,8,-46,24,386,16,-72,8,1187,16,520,16,2,-1,?
2017-03-21 14:13:38.328000,605,16,6,24,-574,24,-615,24,117,16,468,8,-270,24,223,0,1494,8,-42,24,396,16,-61,8,1182,16,526,16,2,-1,?
2017-03-21 14:13:38.336000,608,16,5,24,-578,24,-612,24,112,16,473,8,-253,24,245,0,1510,8,-19,24,423,16,-38,8,1198,16,528,16,2,-1,?
2017-03-21 14:13:38.344000,609,16,7,24,-578,24,-615,24,111,16,468,8,-253,24,246,0,1510,8,-27,24,414,16,-42,8,1203,16,520,16,2,-1,?
2017-03-21 14:13:38.352000,602,16,10,24,-576,24,-617,24,112,16,462,8,-270,24,225,0,1494,8,-52,24,393,16,-70,8,1195,16,518,16,2,-1,?
2017-03-21 14:13:38.359000,605,16,7,24,-576,24,-610,24,115,16,466,8,-269,24,226,0,1495,8,-45,24,397,16,-64,8,1191,16,528,16,2,-1,?
2017-03-21 14:13:38.367000,616,16,2,24,-578,24,-608,24,118,16,469,8,-253,24,244,0,1507,8,-24,24,414,16,-35,8,1199,16,531,16,2,-1,?
2017-03-21 14:13:38.375000,612,16,2,24,-577,24,-613,24,115,16,465,8,-252,24,244,0,1506,8,-22,24,416,16,-38,8,1204,16,521,16,2,-1,?
2017-03-21 14:13:38.383000,602,16,3,24,-574,24,-617,24,111,16,462,8,-266,24,231,0,1497,8,-38,24,400,16,-60,8,1194,16,517,16,2,-1,?
2017-03-21 14:13:38.390000,605,16,4,24,-575,24,-615,24,115,16,466,8,-278,24,221,0,1489,8,-50,24,393,16,-68,8,1184,16,520,16,2,-1,?
2017-03-21 14:13:38.398000,612,16,10,24,-580,24,-610,24,118,16,466,8,-265,24,227,0,1493,8,-40,24,405,16,-60,8,1187,16,524,16,2,-1,?
2017-03-21 14:13:38.406000,612,16,9,24,-578,24,-615,24,114,16,464,8,-245,24,244,0,1512,8,-16,24,425,16,-40,8,1202,16,526,16,2,-1,?
2017-03-21 14:13:38.414000,609,16,5,24,-577,24,-620,24,112,16,463,8,-248,24,244,0,1516,8,-14,24,423,16,-37,8,1206,16,520,16,2,-1,?
2017-03-21 14:13:38.422000,605,16,2,24,-582,24,-619,24,111,16,465,8,-269,24,228,0,1493,8,-37,24,398,16,-61,8,1189,16,515,16,2,-1,?
2017-03-21 14:13:38.430000,605,16,1,24,-578,24,-618,24,112,16,469,8,-289,24,210,0,1480,8,-49,24,386,16,-75,8,1179,16,522,16,2,-1,?
2017-03-21 14:13:38.437000,611,16,4,24,-574,24,-617,24,115,16,467,8,-278,24,221,0,1500,8,-34,24,403,16,-61,8,1193,16,529,16,2,-1,?
2017-03-21 14:13:38.445000,617,16,6,24,-577,24,-615,24,116,16,467,8,-242,24,251,0,1520,8,-13,24,429,16,-37,8,1212,16,529,16,2,-1,?
2017-03-21 14:13:38.453000,617,16,5,24,-579,24,-618,24,113,16,470,8,-239,24,249,0,1509,8,-20,24,428,16,-38,8,1211,16,530,16,2,-1,?
2017-03-21 14:13:38.461000,607,16,2,24,-580,24,-620,24,113,16,467,8,-275,24,220,0,1485,8,-44,24,396,16,-66,8,1192,16,526,16,2,-1,?
2017-03-21 14:13:38.468000,601,16,6,24,-577,24,-617,24,117,16,468,8,-284,24,214,0,1486,8,-49,24,394,16,-71,8,1189,16,521,16,2,-1,?
2017-03-21 14:13:38.476000,609,16,11,24,-573,24,-614,24,121,16,469,8,-253,24,239,0,1509,8,-26,24,425,16,-41,8,1204,16,523,16,2,-1,?
2017-03-21 14:13:38.484000,616,16,7,24,-575,24,-613,24,117,16,467,8,-240,24,253,0,1522,8,-15,24,425,16,-34,8,1210,16,525,16,2,-1,?
2017-03-21 14:13:38.492000,606,16,2,24,-578,24,-615,24,116,16,467,8,-267,24,236,0,1505,8,-32,24,400,16,-59,8,1198,16,523,16,2,-1,?
2017-03-21 14:13:38.501000,599,16,2,24,-583,24,-616,24,118,16,469,8,-278,24,222,0,1489,8,-42,24,391,16,-66,8,1180,16,522,16,2,-1,?
2017-03-21 14:13:38.509000,611,16,5,24,-580,24,-616,24,117,16,468,8,-261,24,231,0,1499,8,-33,24,406,16,-53,8,1187,16,520,16,2,-1,?
2017-03-21 14:13:38.515000,619,16,7,24,-575,24,-616,24,114,16,463,8,-248,24,242,0,1515,8,-26,24,415,16,-47,8,1206,16,524,16,2,-1,?
2017-03-21 14:13:38.523000,608,16,6,24,-580,24,-616,24,113,16,460,8,-256,24,235,0,1508,8,-33,24,402,16,-54,8,1198,16,527,16,2,-1,?
2017-03-21 14:13:38.531000,601,16,0,24,-579,24,-618,24,112,16,466,8,-277,24,221,0,1491,8,-45,24,394,16,-67,8,1184,16,521,16,2,-1,?
2017-03-21 14:13:38.539000,608,16,-2,24,-576,24,-614,24,115,16,471,8,-272,24,228,0,1499,8,-35,24,406,16,-63,8,1193,16,518,16,2,-1,?
2017-03-21 14:13:38.547000,612,16,5,24,-578,24,-610,24,117,16,471,8,-251,24,244,0,1519,8,-19,24,423,16,-46,8,1205,16,525,16,2,-1,?
2017-03-21 14:13:38.555000,609,16,8,24,-580,24,-613,24,115,16,469,8,-254,24,242,0,1518,8,-31,24,417,16,-47,8,1200,16,523,16,2,-1,?
2017-03-21 14:13:38.562000,606,16,4,24,-579,24,-615,24,112,16,470,8,-267,24,230,0,1498,8,-49,24,396,16,-64,8,1189,16,518,16,2,-1,?
2017-03-21 14:13:38.570000,604,16,2,24,-575,24,-615,24,113,16,470,8,-274,24,217,0,1483,8,-47,24,392,16,-73,8,1190,16,524,16,2,-1,?
2017-03-21 14:13:38.578000,606,16,5,24,-579,24,-613,24,119,16,465,8,-263,24,221,0,1496,8,-32,24,406,16,-61,8,1197,16,524,16,2,-1,?
2017-03-21 14:13:38.586000,615,16,8,24,-582,24,-613,24,120,16,467,8,-241,24,245,0,1522,8,-17,24,427,16,-42,8,1204,16,523,16,2,-1,?
2017-03-21 14:13:38.595000,621,16,8,24,-579,24,-616,24,112,16,473,8,-240,24,250,0,1525,8,-21,24,427,16,-44,8,1208,16,526,16,2,-1,?
2017-03-21 14:13:38.602000,612,16,7,24,-580,24,-616,24,107,16,467,8,-263,24,227,0,1499,8,-45,24,397,16,-66,8,1192,16,520,16,2,-1,?
2017-03-21 14:13:38.610000,603,16,10,24,-580,24,-615,24,112,16,462,8,-281,24,212,0,1482,8,-52,24,388,16,-76,8,1184,16,517,16,2,-1,?
2017-03-21 14:13:38.618000,608,16,9,24,-577,24,-617,24,116,16,465,8,-264,24,229,0,1499,8,-28,24,413,16,-51,8,1199,16,521,16,2,-1,?
2017-03-21 14:13:38.626000,614,16,5,24,-579,24,-615,24,113,16,468,8,-239,24,253,0,1525,8,-8,24,426,16,-28,8,1212,16,527,16,2,-1,?
2017-03-21 14:13:38.633000,611,16,4,24,-580,24,-613,24,113,16,468,8,-251,24,244,0,1518,8,-24,24,409,16,-41,8,1207,16,525,16,2,-1,?
2017-03-21 14:13:38.642000,605,0,1,24,-580,24,-615,24,115,16,464,8,-277,24,219,0,1493,8,-48,24,383,16,-69,8,1186,16,513,16,2,-1,?
2017-03-21 14:13:38.648000,604,0,-1,16,-580,24,-619,24,116,16,466,8,-277,24,219,0,1489,8,-40,24,391,16,-66,8,1184,16,514,16,2,-1,?
2017-03-21 14:13:38.656000,611,0,4,16,-579,24,-616,24,117,16,469,8,-254,24,246,0,1510,8,-17,24,422,16,-44,8,1204,16,522,8,2,-1,?
2017-03-21 14:13:38.665000,616,0,6,16,-576,0,-611,24,117,16,468,8,-248,24,257,0,1518,8,-23,24,419,16,-47,8,1210,16,522,8,2,-1,?
2017-03-21 14:13:38.672000,607,0,4,16,-575,0,-614,0,113,16,468,8,-269,24,231,0,1495,8,-45,24,394,16,-64,8,1196,16,520,8,2,-1,?
2017-03-21 14:13:38.680000,605,0,3,16,-580,0,-615,0,114,8,469,8,-272,24,223,0,1490,8,-39,24,395,16,-59,8,1187,16,521,8,2,-1,?
2017-03-21 14:13:38.687000,616,0,2,16,-581,0,-617,0,118,8,467,24,-256,24,242,0,1511,8,-23,24,409,16,-47,8,1201,16,526,8,2,-1,?
2017-03-21 14:13:38.696000,613,0,2,16,-578,0,-622,0,119,8,466,24,-253,16,249,0,1513,8,-32,24,407,16,-54,8,1204,16,528,8,2,-1,?
2017-03-21 14:13:38.703000,601,0,3,16,-579,0,-615,0,116,8,465,24,-262,16,234,8,1497,8,-44,24,395,16,-65,8,1186,16,523,8,2,-1,?
2017-03-21 14:13:38.712000,602,0,5,16,-577,0,-608,0,113,8,463,24,-274,16,217,8,1489,24,-43,24,397,16,-65,8,1184,16,524,8,2,-1,?
2017-03-21 14:13:38.719000,610,0,9,16,-577,0,-616,0,112,8,464,24,-267,16,228,8,1502,24,-33,0,409,16,-52,8,1198,16,527,8,2,-1,?
2017-03-21 14:13:38.728000,613,0,12,16,-577,0,-620,0,116,8,470,24,-245,16,253,8,1516,24,-24,0,419,16,-39,8,1206,16,525,8,2,-1,?
2017-03-21 14:13:38.734000,610,0,5,16,-574,0,-613,0,117,8,470,24,-250,16,252,8,1511,24,-25,0,413,16,-46,16,1200,16,523,8,2,-1,?
2017-03-21 14:13:38.743000,607,0,-5,16,-576,0,-612,0,114,8,463,24,-272,16,232,8,1494,24,-43,0,394,16,-63,16,1186,24,521,8,2,-1,?
2017-03-21 14:13:38.750000,611,0,1,16,-580,0,-615,0,112,8,465,24,-284,16,214,8,1482,24,-57,8,394,16,-69,16,1184,24,522,8,2,-1,?
2017-03-21 14:13:38.758000,614,0,8,16,-580,0,-613,0,114,8,470,24,-269,16,223,8,1494,24,-40,8,412,16,-52,16,1197,24,525,8,2,-1,?
2017-03-21 14:13:38.766000,612,0,6,16,-578,0,-614,0,114,8,469,24,-239,16,254,8,1518,24,-15,8,426,16,-32,16,1210,24,526,8,2,-1,?
2017-03-21 14:13:38.774000,609,0,8,16,-575,0,-615,0,113,8,468,24,-241,16,251,8,1517,24,-24,8,412,16,-43,16,1205,24,526,8,2,-1,?
2017-03-21 14:13:38.781000,606,0,7,16,-576,0,-612,0,113,8,465,24,-271,16,222,8,1491,24,-53,8,382,16,-68,16,1183,24,525,8,2,-1,?
2017-03-21 14:13:38.790000,608,0,2,16,-575,0,-616,0,117,8,462,24,-281,16,218,8,1479,24,-50,8,385,16,-68,16,1182,24,524,8,2,-1,?
2017-03-21 14:13:38.797000,610,0,1,16,-579,0,-617,0,122,8,467,24,-256,16,243,8,1504,24,-23,8,417,16,-45,16,1200,24,523,8,2,-1,?
2017-03-21 14:13:38.805000,606,0,4,16,-580,0,-613,0,117,8,472,24,-242,16,254,8,1525,24,-19,8,419,16,-39,16,1206,24,524,8,2,-1,?
2017-03-21 14:13:38.814000,606,0,5,16,-573,0,-613,0,114,8,470,24,-258,16,238,8,1505,24,-40,8,399,16,-55,16,1196,24,519,8,2,-1,?
2017-03-21 14:13:38.820000,606,0,5,16,-578,0,-616,0,116,8,466,24,-268,16,226,8,1484,24,-46,8,391,16,-66,16,1185,24,513,8,2,-1,?
2017-03-21 14:13:38.828000,605,0,5,16,-583,0,-619,0,118,8,468,24,-267,16,228,8,1496,24,-32,8,402,16,-61,16,1190,24,518,8,2,-1,?
2017-03-21 14:13:38.836000,613,0,5,16,-576,0,-618,0,120,8,468,24,-258,16,237,8,1515,24,-22,8,414,16,-50,16,1199,24,522,8,2,-1,?
2017-03-21 14:13:38.844000,615,0,6,16,-577,0,-611,0,119,8,463,24,-253,16,238,8,1507,24,-29,8,408,16,-51,16,1195,24,517,8,2,-1,?
2017-03-21 14:13:38.852000,608,0,5,16,-579,0,-613,0,111,8,466,24,-270,16,221,8,1488,24,-42,8,399,16,-63,16,1190,24,519,8,2,-1,?
2017-03-21 14:13:38.859000,606,0,2,16,-577,0,-616,0,109,8,469,24,-270,16,226,8,1498,24,-36,8,398,16,-57,16,1196,24,525,8,2,-1,?
2017-03-21 14:13:38.867000,610,0,6,16,-577,0,-614,0,118,8,471,24,-248,16,249,8,1513,24,-21,8,406,16,-41,16,1201,24,529,8,2,-1,?
2017-03-21 14:13:38.875000,609,0,11,16,-577,0,-613,0,120,8,469,24,-254,16,245,8,1503,24,-24,8,411,16,-43,16,1197,24,526,8,2,-1,?
2017-03-21 14:13:38.884000,602,0,6,16,-575,0,-614,0,113,8,465,24,-274,16,226,8,1490,24,-43,8,396,16,-61,16,1188,24,518,8,2,-1,?
2017-03-21 14:13:38.891000,602,0,0,16,-571,0,-616,0,111,8,470,24,-280,16,220,8,1488,24,-49,8,391,16,-68,16,1190,24,520,8,2,-1,?
2017-03-21 14:13:38.900000,610,0,5,16,-573,0,-616,0,116,8,471,24,-265,16,232,8,1499,24,-34,8,410,16,-52,16,1198,24,526,8,2,-1,?
2017-03-21 14:13:38.906000,615,0,7,16,-577,0,-612,0,117,8,467,24,-244,16,249,8,1518,24,-20,8,426,16,-35,16,1205,24,526,8,2,-1,?
2017-03-21 14:13:38.914000,613,0,5,16,-575,0,-611,0,117,8,466,24,-253,16,243,8,1510,24,-27,8,416,16,-48,16,1205,24,523,8,2,-1,?
2017-03-21 14:13:38.922000,610,0,3,16,-576,0,-614,0,118,8,467,24,-275,16,225,8,1489,24,-44,8,397,16,-72,16,1192,24,524,8,2,-1,?
2017-03-21 14:13:38.930000,609,0,1,16,-583,0,-614,0,115,8,466,24,-280,16,217,8,1485,24,-50,8,391,16,-73,16,1187,24,526,8,2,-1,?
2017-03-21 14:13:38.938000,606,0,-1,16,-584,0,-610,0,111,8,464,24,-261,16,235,8,1500,24,-34,8,401,16,-52,16,1195,24,520,8,2,-1,?
2017-03-21 14:13:38.946000,610,0,0,16,-578,0,-612,0,116,8,467,24,-243,16,261,8,1520,24,-16,8,423,16,-36,16,1210,24,522,8,2,-1,?
2017-03-21 14:13:38.953000,612,0,4,16,-574,0,-616,0,120,8,470,24,-253,16,249,8,1520,24,-29,8,417,16,-45,16,1211,24,529,8,2,-1,?
2017-03-21 14:13:38.962000,604,0,7,16,-577,0,-614,0,116,8,466,24,-272,16,214,8,1495,24,-55,8,378,16,-68,16,1188,24,521,8,2,-1,?
2017-03-21 14:13:38.970000,600,0,5,16,-579,0,-613,0,115,8,463,24,-272,16,213,8,1483,24,-51,8,381,16,-72,16,1183,24,518,8,2,-1,?
2017-03-21 14:13:38.978000,607,0,5,16,-580,0,-614,0,117,8,473,24,-253,16,243,8,1508,24,-27,8,418,16,-52,16,1203,24,528,8,2,-1,?
2017-03-21 14:13:38.985000,612,0,9,16,-581,0,-612,0,118,8,478,24,-247,16,249,8,1519,24,-24,8,417,16,-43,16,1208,24,530,8,2,-1,?
2017-03-21 14:13:38.992000,607,0,9,16,-580,0,-611,0,115,8,469,24,-268,16,228,8,1497,24,-42,8,391,16,-58,16,1198,24,519,8,2,-1,?
2017-03-21 14:13:39,601,0,4,16,-579,0,-613,0,111,8,465,24,-275,16,231,8,1485,24,-42,8,389,16,-63,16,1190,24,516,8,2,-1,?
2017-03-21 14:13:39.008000,608,0,5,16,-579,0,-614,0,110,8,474,24,-262,16,245,8,1496,24,-26,8,412,16,-49,16,1191,24,526,8,2,-1,?
2017-03-21 14:13:39.016000,612,0,9,16,-583,0,-609,0,114,8,476,24,-254,16,240,8,1500,24,-24,8,417,16,-43,16,1197,24,528,8,2,-1,?
2017-03-21 14:13:39.024000,604,0,6,16,-585,0,-608,0,118,8,465,24,-258,16,231,8,1496,24,-39,8,398,16,-54,16,1195,24,523,8,2,-1,?
2017-03-21 14:13:39.032000,600,0,2,16,-579,0,-620,0,120,8,463,24,-267,16,224,8,1493,24,-47,8,390,16,-64,16,1189,24,525,8,2,-1,?
2017-03-21 14:13:39.039000,608,0,4,16,-581,0,-620,0,120,8,471,24,-259,16,233,8,1501,24,-34,8,403,16,-58,16,1194,24,524,8,2,-1,?
2017-03-21 14:13:39.047000,614,0,6,16,-581,0,-612,0,119,8,474,24,-246,16,251,8,1513,24,-17,8,416,16,-42,16,1204,24,521,8,2,-1,?
2017-03-21 14:13:39.055000,615,0,6,16,-574,0,-612,0,118,8,468,24,-255,16,241,8,1511,24,-18,8,412,16,-42,16,1201,24,522,8,2,-1,?
2017-03-21 14:13:39.063000,609,0,3,16,-576,0,-615,0,116,8,463,24,-269,16,218,8,1497,24,-40,8,392,16,-60,16,1182,24,521,8,2,-1,?
2017-03-21 14:13:39.071000,604,0,1,16,-584,0,-619,0,114,8,467,24,-274,16,216,8,1486,24,-56,8,385,16,-71,16,1183,24,519,8,2,-1,?
2017-03-21 14:13:39.078000,607,0,4,16,-584,0,-617,0,116,8,473,24,-260,16,236,8,1498,24,-40,8,399,16,-58,16,1196,24,519,8,2,-1,?
2017-03-21 14:13:39.086000,615,0,10,16,-577,0,-611,0,116,8,474,24,-243,16,253,8,1521,24,-10,8,423,16,-35,16,1207,24,524,8,2,-1,?
2017-03-21 14:13:39.094000,616,0,11,16,-572,0,-608,0,110,8,474,24,-255,16,241,8,1514,24,-11,8,422,16,-37,16,1207,24,525,8,2,-1,?
2017-03-21 14:13:39.102000,606,0,-1,16,-583,0,-610,0,111,8,474,24,-274,16,222,8,1487,24,-44,8,389,16,-64,16,1188,24,520,8,2,-1,?
2017-03-21 14:13:39.111000,602,0,-3,16,-583,0,-614,0,111,8,470,24,-276,16,217,8,1482,24,-59,8,379,16,-73,16,1183,24,520,8,2,-1,?
2017-03-21 14:13:39.118000,611,0,9,16,-573,0,-616,0,110,8,468,24,-262,16,236,8,1506,24,-35,8,408,16,-52,16,1201,24,524,8,2,-1,?
2017-03-21 14:13:39.125000,612,0,9,16,-578,0,-615,0,113,8,470,24,-247,16,255,8,1520,24,-12,8,427,16,-38,16,1210,24,522,8,2,-1,?
2017-03-21 14:13:39.133000,604,0,0,16,-582,0,-614,0,117,8,468,24,-257,16,238,8,1501,24,-29,8,411,16,-55,16,1199,24,519,8,2,-1,?
2017-03-21 14:13:39.141000,603,24,0,16,-577,0,-611,0,115,8,467,24,-276,16,218,8,1487,24,-52,8,383,16,-74,16,1181,24,519,8,2,-1,?
2017-03-21 14:13:39.150000,610,24,8,16,-575,0,-610,0,113,8,474,24,-273,16,226,8,1497,24,-42,8,392,16,-64,16,1185,24,526,8,2,-1,?
2017-03-21 14:13:39.158000,612,24,8,16,-575,0,-611,0,113,8,476,24,-252,16,241,8,1508,24,-18,8,421,16,-42,16,1203,24,529,0,2,-1,?
2017-03-21 14:13:39.164000,606,24,6,16,-573,16,-613,0,115,8,470,24,-251,16,239,8,1503,24,-21,8,413,16,-45,16,1201,24,521,0,2,-1,?
2017-03-21 14:13:39.173000,600,24,6,16,-575,16,-615,24,116,8,463,24,-272,16,228,8,1497,24,-43,8,390,16,-65,16,1193,24,520,0,2,-1,?
2017-03-21 14:13:39.181000,604,24,5,16,-584,16,-612,24,112,0,464,24,-266,16,235,8,1504,24,-41,8,396,16,-60,16,1196,24,524,0,2,-1,?
2017-03-21 14:13:39.189000,614,24,7,16,-582,16,-611,24,112,0,469,8,-245,16,242,8,1510,24,-21,8,416,16,-40,16,1199,24,524,0,2,-1,?
2017-03-21 14:13:39.196000,612,24,7,16,-577,16,-613,24,117,0,468,8,-252,0,239,8,1504,24,-17,8,419,16,-42,16,1198,24,525,0,2,-1,?
2017-03-21 14:13:39.204000,603,24,4,16,-578,16,-612,24,116,0,465,8,-271,0,235,8,1496,24,-34,8,396,16,-61,16,1190,24,521,0,2,-1,?
2017-03-21 14:13:39.212000,602,24,3,16,-580,16,-611,24,111,0,471,8,-278,0,226,8,1491,24,-51,8,387,16,-70,16,1186,24,518,0,2,-1,?
2017-03-21 14:13:39.220000,609,24,9,16,-580,16,-609,24,114,0,474,8,-262,0,231,8,1504,24,-41,16,401,16,-55,16,1193,24,522,0,2,-1,?
2017-03-21 14:13:39.228000,615,24,12,16,-580,16,-611,24,117,0,469,8,-244,0,252,8,1517,24,-15,16,419,8,-37,16,1204,24,526,0,2,-1,?
2017-03-21 14:13:39.236000,616,24,7,16,-579,16,-616,24,115,0,469,8,-253,0,248,8,1507,24,-15,16,422,8,-41,8,1206,24,519,0,2,-1,?
2017-03-21 14:13:39.244000,611,24,3,16,-578,16,-617,24,114,0,468,8,-271,0,226,8,1494,24,-41,16,396,8,-60,8,1188,0,513,0,2,-1,?
2017-03-21 14:13:39.250000,605,24,4,16,-577,16,-615,24,113,0,465,8,-284,0,215,8,1495,24,-57,8,378,8,-79,8,1177,0,521,0,2,-1,?
2017-03-21 14:13:39.258000,606,24,6,16,-576,16,-612,24,114,0,466,8,-273,0,232,8,1507,24,-39,8,396,16,-66,8,1187,0,525,0,2,-1,?
2017-03-21 14:13:39.266000,614,24,7,16,-574,16,-607,24,116,0,469,8,-240,0,258,8,1521,24,-12,8,422,16,-35,8,1205,0,521,0,2,-1,?
2017-03-21 14:13:39.274000,615,24,7,16,-577,16,-608,24,112,0,469,8,-242,0,247,8,1512,24,-18,8,420,16,-36,8,1209,0,520,0,2,-1,?
2017-03-21 14:13:39.282000,604,24,6,16,-585,16,-615,24,109,0,468,8,-275,0,217,8,1484,24,-45,8,388,16,-66,8,1187,0,519,0,2,-1,?
2017-03-21 14:13:39.291000,602,24,7,16,-584,16,-617,24,112,0,469,8,-284,0,213,8,1482,24,-49,8,384,16,-74,8,1180,0,525,0,2,-1,?
2017-03-21 14:13:39.297000,608,24,5,16,-576,16,-608,24,117,0,468,8,-257,0,239,8,1508,24,-26,8,416,16,-48,8,1200,0,528,0,2,-1,?
2017-03-21 14:13:39.305000,608,24,3,16,-573,16,-608,24,117,0,470,8,-241,0,256,8,1518,24,-18,8,427,16,-39,8,1207,0,525,0,2,-1,?
2017-03-21 14:13:39.313000,606,24,7,16,-576,16,-621,24,117,0,468,8,-262,0,233,8,1499,24,-37,8,404,16,-61,8,1191,0,527,0,2,-1,?
2017-03-21 14:13:39.322000,606,24,7,16,-579,16,-621,24,117,0,463,8,-269,0,217,8,1494,24,-44,8,387,16,-71,8,1180,0,525,0,2,-1,?
2017-03-21 14:13:39.330000,611,24,5,16,-574,16,-612,24,115,0,466,8,-254,0,232,8,1510,24,-26,8,403,16,-55,8,1194,0,522,0,2,-1,?
2017-03-21 14:13:39.337000,614,24,6,16,-573,16,-615,24,114,0,466,8,-252,0,244,8,1515,24,-18,8,419,16,-44,8,1202,0,523,0,2,-1,?
2017-03-21 14:13:39.345000,607,24,5,16,-578,16,-620,24,113,0,464,8,-262,0,233,8,1504,24,-34,8,408,16,-51,8,1191,0,524,0,2,-1,?
2017-03-21 14:13:39.352000,600,24,7,16,-576,16,-616,24,113,0,470,8,-272,0,219,8,1494,24,-47,8,389,16,-65,8,1185,0,522,0,2,-1,?
2017-03-21 14:13:39.361000,609,24,11,16,-575,16,-613,24,116,0,471,8,-262,0,232,8,1501,24,-36,8,394,16,-63,8,1189,0,521,0,2,-1,?
2017-03-21 14:13:39.368000,618,24,11,16,-576,16,-617,24,114,0,465,8,-244,0,251,8,1513,24,-18,8,418,16,-45,8,1200,0,523,0,2,-1,?
2017-03-21 14:13:39.377000,616,24,7,16,-579,16,-617,24,111,0,466,8,-250,0,246,8,1510,24,-19,8,423,16,-43,8,1206,0,524,0,2,-1,?
2017-03-21 14:13:39.383000,613,24,2,16,-582,16,-609,24,113,0,469,8,-267,0,228,8,1499,24,-36,8,400,16,-59,8,1192,0,522,0,2,-1,?
2017-03-21 14:13:39.392000,608,24,6,16,-573,16,-609,24,117,0,468,8,-274,0,217,8,1488,24,-47,8,388,16,-68,8,1182,0,522,0,2,-1,?
2017-03-21 14:13:39.400000,608,24,10,16,-571,16,-612,24,119,0,468,8,-261,0,231,8,1498,24,-40,8,402,16,-54,8,1187,0,524,0,2,-1,?
2017-03-21 14:13:39.408000,615,24,6,16,-581,16,-612,24,119,0,469,8,-241,0,255,8,1516,24,-17,8,427,16,-32,8,1201,0,525,0,2,-1,?
2017-03-21 14:13:39.416000,615,24,4,16,-581,16,-615,24,117,0,465,8,-246,0,251,8,1512,24,-15,8,428,16,-34,8,1208,0,524,0,2,-1,?
2017-03-21 14:13:39.423000,605,24,5,16,-580,16,-617,24,114,0,462,8,-269,0,228,8,1493,24,-43,8,393,16,-61,8,1191,0,518,0,2,-1,?
2017-03-21 14:13:39.431000,604,24,4,16,-582,16,-618,24,113,0,465,8,-285,0,209,8,1480,24,-53,8,382,16,-72,8,1179,0,516,0,2,-1,?
2017-03-21 14:13:39.439000,611,24,6,16,-578,16,-614,24,114,0,468,8,-264,0,226,8,1496,24,-22,8,408,16,-54,8,1192,0,528,0,2,-1,?
2017-03-21 14:13:39.447000,616,24,4,16,-575,16,-610,24,114,0,468,8,-235,0,259,8,1519,24,0,8,426,16,-36,8,1205,0,534,0,2,-1,?
2017-03-21 14:13:39.454000,615,24,4,16,-578,16,-612,24,114,0,470,8,-253,0,246,8,1505,24,-23,8,417,16,-41,8,1200,0,522,0,2,-1,?
2017-03-21 14:13:39.463000,607,24,6,16,-578,16,-617,24,117,0,469,8,-278,0,211,8,1481,24,-51,8,395,16,-64,8,1182,0,516,0,2,-1,?
2017-03-21 14:13:39.470000,604,24,4,16,-573,16,-620,24,117,0,470,8,-268,0,217,8,1491,24,-44,8,398,16,-70,8,1184,0,526,0,2,-1,?
2017-03-21 14:13:39.478000,612,24,8,16,-576,16,-615,24,115,0,472,8,-251,0,247,8,1515,24,-20,8,418,16,-47,8,1203,0,529,0,2,-1,?
2017-03-21 14:13:39.485000,613,24,10,16,-579,16,-607,24,114,0,469,8,-255,0,248,8,1510,24,-22,8,411,16,-38,8,1207,0,521,0,2,-1,?
2017-03-21 14:13:39.494000,606,24,4,16,-576,16,-609,24,112,0,468,8,-272,0,224,8,1487,24,-44,8,397,16,-63,8,1195,0,520,0,2,-1,?
2017-03-21 14:13:39.502000,607,24,2,16,-577,16,-616,24,112,0,468,8,-270,0,227,8,1492,24,-42,8,401,16,-67,8,1186,0,524,0,2,-1,?
2017-03-21 14:13:39.510000,611,24,9,16,-575,16,-616,24,115,0,468,8,-256,0,245,8,1515,24,-25,8,414,16,-49,8,1198,0,530,0,2,-1,?
2017-03-21 14:13:39.516000,609,24,11,16,-574,16,-614,24,111,0,468,8,-254,0,243,8,1514,24,-26,8,417,16,-47,8,1206,0,530,0,2,-1,?
2017-03-21 14:13:39.524000,609,24,6,16,-578,16,-621,24,111,0,467,8,-263,0,232,8,1498,24,-37,8,400,16,-60,8,1189,0,519,0,2,-1,?
2017-03-21 14:13:39.532000,606,24,4,16,-574,16,-625,24,117,0,466,8,-275,0,221,8,1494,24,-46,8,388,16,-68,8,1179,0,518,0,2,-1,?
2017-03-21 14:13:39.540000,606,24,6,16,-575,16,-615,24,116,0,464,8,-265,0,229,8,1506,24,-38,8,403,16,-57,8,1190,0,529,0,2,-1,?
2017-03-21 14:13:39.548000,614,24,12,16,-579,16,-613,24,113,0,467,8,-244,0,248,8,1519,24,-17,8,422,16,-39,8,1205,0,529,0,2,-1,?
2017-03-21 14:13:39.555000,613,24,12,16,-577,16,-621,24,116,0,470,8,-246,0,245,8,1509,24,-16,8,414,16,-37,8,1207,0,520,0,2,-1,?
2017-03-21 14:13:39.563000,603,24,5,16,-580,16,-622,24,112,0,467,8,-266,0,228,8,1491,24,-36,8,392,16,-54,8,1189,0,516,0,2,-1,?
2017-03-21 14:13:39.571000,605,24,7,16,-585,16,-620,24,103,0,465,8,-282,0,215,8,1484,24,-46,8,395,16,-70,8,1177,0,521,0,2,-1,?
2017-03-21 14:13:39.580000,612,24,9,16,-581,16,-619,24,107,0,466,8,-270,0,226,8,1497,24,-33,8,412,16,-59,8,1189,0,527,0,2,-1,?
2017-03-21 14:13:39.587000,615,24,3,16,-577,16,-612,24,117,0,473,8,-241,0,253,8,1519,24,-15,8,424,16,-31,8,1208,0,531,0,2,-1,?
2017-03-21 14:13:39.595000,613,24,5,16,-575,16,-610,24,116,0,471,8,-244,0,250,8,1519,24,-19,8,422,16,-35,8,1207,0,532,0,2,-1,?
2017-03-21 14:13:39.603000,606,24,7,16,-580,16,-616,24,114,0,459,8,-274,0,223,8,1496,24,-47,8,395,16,-70,8,1183,0,524,0,2,-1,?
2017-03-21 14:13:39.611000,607,24,7,16,-578,16,-619,24,117,0,460,8,-283,0,214,8,1485,24,-47,8,392,16,-73,8,1183,0,518,0,2,-1,?
2017-03-21 14:13:39.619000,613,24,10,16,-573,16,-614,24,118,0,470,8,-255,0,239,8,1508,24,-17,8,420,16,-43,8,1205,0,524,0,2,-1,?
2017-03-21 14:13:39.626000,610,24,6,16,-577,16,-612,24,116,0,469,8,-239,0,257,8,1522,24,-14,8,427,16,-37,8,1209,0,529,0,2,-1,?
2017-03-21 14:13:39.634000,609,24,3,16,-579,16,-616,24,111,0,464,8,-266,0,233,8,1496,24,-37,8,409,16,-60,8,1195,0,523,0,2,-1,?
2017-03-21 14:13:39.642000,608,24,6,16,-577,16,-618,24,108,0,463,8,-279,0,213,8,1482,24,-44,8,394,16,-68,8,1183,0,514,0,2,-1,?
2017-03-21 14:13:39.650000,599,24,8,16,-573,16,-616,24,111,0,467,8,-261,0,231,8,1499,24,-32,8,405,16,-54,8,1193,0,517,0,2,-1,?
2017-03-21 14:13:39.658000,600,24,7,0,-576,16,-614,24,116,0,468,8,-252,0,248,8,1510,24,-25,8,416,16,-45,8,1206,0,526,0,2,-1,?
2017-03-21 14:13:39.666000,608,24,8,0,-581,16,-615,24,115,0,466,8,-260,0,239,8,1502,24,-29,8,404,16,-58,8,1195,0,527,16,2,-1,?
2017-03-21 14:13:39.674000,606,24,8,0,-577,24,-616,24,114,0,467,8,-276,0,218,8,1493,24,-42,8,394,16,-71,8,1185,0,523,16,2,-1,?
2017-03-21 14:13:39.681000,608,24,5,0,-581,24,-611,0,116,0,468,8,-271,0,223,8,1501,24,-32,8,407,16,-59,8,1192,0,518,16,2,-1,?
2017-03-21 14:13:39.688000,616,24,10,0,-582,24,-612,0,118,8,469,8,-251,0,244,8,1511,24,-14,8,422,16,-44,8,1205,0,522,16,2,-1,?
2017-03-21 14:13:39.696000,614,24,11,0,-572,24,-620,0,115,8,470,16,-249,0,244,8,1507,24,-28,8,413,16,-51,8,1206,0,520,16,2,-1,?
2017-03-21 14:13:39.704000,606,24,5,0,-575,24,-619,0,111,8,468,16,-262,0,231,8,1497,24,-45,8,395,16,-66,8,1188,0,515,16,2,-1,?
2017-03-21 14:13:39.712000,609,24,7,0,-580,24,-615,0,110,8,468,16,-279,0,217,0,1485,24,-45,8,397,16,-72,8,1180,0,519,16,2,-1,?
2017-03-21 14:13:39.720000,612,24,11,0,-579,24,-615,0,115,8,464,16,-269,0,227,0,1494,0,-32,8,411,16,-60,8,1193,0,521,16,2,-1,?
2017-03-21 14:13:39.728000,615,24,7,0,-578,24,-619,0,118,8,466,16,-242,0,251,0,1519,0,-16,16,424,16,-35,8,1210,0,522,16,2,-1,?
2017-03-21 14:13:39.735000,616,24,7,0,-578,24,-618,0,111,8,471,16,-245,0,246,0,1520,0,-24,16,422,24,-35,8,1208,0,523,16,2,-1,?
2017-03-21 14:13:39.744000,605,24,7,0,-581,24,-614,0,105,8,468,16,-267,0,222,0,1496,0,-47,16,395,24,-63,0,1183,0,518,16,2,-1,?
2017-03-21 14:13:39.751000,597,24,3,0,-580,24,-616,0,110,8,467,16,-282,0,207,0,1483,0,-49,16,387,24,-77,0,1177,24,518,16,2,-1,?
2017-03-21 14:13:39.760000,607,24,4,0,-577,24,-618,0,116,8,469,16,-270,0,228,0,1499,0,-24,8,412,24,-50,0,1196,24,525,16,2,-1,?
2017-03-21 14:13:39.768000,618,24,8,0,-578,24,-616,0,116,8,469,16,-244,0,262,0,1524,0,-7,8,429,8,-21,0,1211,24,525,16,2,-1,?
2017-03-21 14:13:39.775000,611,24,6,0,-581,24,-617,0,117,8,466,16,-246,0,253,0,1516,0,-25,8,417,8,-38,0,1209,24,522,16,2,-1,?
2017-03-21 14:13:39.783000,603,24,5,0,-584,24,-615,0,116,8,464,16,-273,0,218,0,1488,0,-54,8,389,8,-72,0,1187,24,523,16,2,-1,?
2017-03-21 14:13:39.791000,610,24,10,0,-577,24,-612,0,113,8,464,16,-280,0,215,0,1488,0,-49,8,391,8,-68,0,1181,24,523,16,2,-1,?
2017-03-21 14:13:39.799000,616,24,10,0,-575,24,-612,0,119,8,468,16,-255,0,245,0,1512,0,-20,8,416,8,-45,0,1201,24,522,16,2,-1,?
2017-03-21 14:13:39.806000,608,24,6,0,-582,24,-614,0,121,8,468,16,-240,0,255,0,1517,0,-23,8,414,8,-48,0,1207,24,520,16,2,-1,?
2017-03-21 14:13:39.813000,605,24,10,0,-581,24,-617,0,114,8,467,16,-264,0,227,0,1496,0,-42,8,396,8,-65,0,1194,24,522,16,2,-1,?
2017-03-21 14:13:39.821000,609,24,12,0,-579,24,-612,0,112,8,469,16,-271,0,223,0,1492,0,-37,8,399,8,-57,0,1193,24,524,16,2,-1,?
2017-03-21 14:13:39.830000,610,24,5,0,-580,24,-610,0,114,8,472,16,-250,0,245,0,1508,0,-26,8,416,8,-42,0,1205,24,524,16,2,-1,?
2017-03-21 14:13:39.837000,608,24,2,0,-579,24,-618,0,112,8,469,16,-249,0,248,0,1514,0,-28,8,412,8,-45,0,1202,24,524,16,2,-1,?
2017-03-21 14:13:39.845000,608,24,3,0,-580,24,-617,0,110,8,462,16,-267,0,234,0,1500,0,-37,8,392,8,-55,0,1186,24,525,16,2,-1,?
2017-03-21 14:13:39.853000,609,24,4,0,-580,24,-613,0,110,8,466,16,-282,0,218,0,1484,0,-44,8,399,8,-63,0,1185,24,524,16,2,-1,?
2017-03-21 14:13:39.861000,609,24,6,0,-580,24,-615,0,111,8,468,16,-269,0,232,0,1496,0,-34,8,415,8,-55,0,1195,24,522,16,2,-1,?
2017-03-21 14:13:39.869000,609,24,9,0,-579,24,-617,0,117,8,465,16,-246,0,255,0,1521,0,-17,8,421,8,-36,0,1207,24,527,16,2,-1,?
2017-03-21 14:13:39.877000,610,24,7,0,-582,24,-614,0,122,8,469,16,-248,0,246,0,1515,0,-23,8,416,8,-39,0,1207,24,528,16,2,-1,?
2017-03-21 14:13:39.885000,604,24,3,0,-584,24,-615,0,116,8,468,16,-261,0,230,0,1491,0,-45,8,393,8,-62,0,1190,24,520,16,2,-1,?
2017-03-21 14:13:39.893000,600,24,7,0,-581,24,-623,0,111,8,464,16,-279,0,219,0,1481,0,-54,8,389,8,-72,0,1187,24,522,16,2,-1,?
2017-03-21 14:13:39.901000,609,24,8,0,-579,24,-621,0,117,8,462,16,-270,0,223,0,1493,0,-37,8,410,8,-56,0,1200,24,523,16,2,-1,?
2017-03-21 14:13:39.908000,615,24,6,0,-579,24,-612,0,116,8,468,16,-237,0,248,0,1516,0,-11,8,431,8,-35,0,1210,24,523,16,2,-1,?
2017-03-21 14:13:39.915000,609,24,11,0,-575,24,-611,0,113,8,471,16,-239,0,254,0,1520,0,-19,8,422,8,-37,0,1203,24,525,16,2,-1,?
2017-03-21 14:13:39.924000,603,24,10,0,-577,24,-615,0,114,8,464,16,-274,0,226,0,1494,0,-50,8,389,8,-61,0,1184,24,520,16,2,-1,?
2017-03-21 14:13:39.931000,609,24,7,0,-578,24,-616,0,114,8,465,16,-282,0,212,0,1480,0,-53,8,385,8,-70,0,1185,24,518,16,2,-1,?
2017-03-21 14:13:39.939000,610,24,8,0,-579,24,-613,0,117,8,469,16,-251,0,234,0,1507,0,-28,8,412,8,-49,0,1204,24,524,16,2,-1,?
2017-03-21 14:13:39.946000,613,24,6,0,-577,24,-613,0,120,8,467,16,-239,0,253,0,1528,0,-18,8,419,8,-38,0,1210,24,526,16,2,-1,?
2017-03-21 14:13:39.954000,614,24,5,0,-574,24,-615,0,114,8,464,16,-264,0,238,0,1505,0,-38,8,401,8,-58,0,1198,24,520,16,2,-1,?
2017-03-21 14:13:39.962000,608,24,8,0,-579,24,-615,0,110,8,465,16,-275,0,217,0,1488,0,-47,8,387,8,-71,0,1185,24,515,16,2,-1,?
2017-03-21 14:13:39.970000,604,24,3,0,-579,24,-617,0,114,8,469,16,-268,0,223,0,1498,0,-33,8,401,8,-58,0,1195,24,523,16,2,-1,?
2017-03-21 14:13:39.978000,606,24,2,0,-575,24,-613,0,116,8,469,16,-260,0,246,0,1512,0,-21,8,422,8,-47,0,1207,24,524,16,2,-1,?
2017-03-21 14:13:39.986000,610,24,5,0,-579,24,-609,0,114,8,467,16,-255,0,245,0,1510,0,-27,8,413,8,-54,0,1193,24,519,16,2,-1,?
2017-03-21 14:13:39.994000,608,24,4,0,-578,24,-615,0,115,8,468,16,-272,0,218,0,1493,0,-38,8,397,8,-61,0,1188,24,521,16,2,-1,?
2017-03-21 14:13:40.001000,606,24,3,0,-576,24,-615,0,116,8,468,16,-271,0,226,0,1495,0,-30,8,403,8,-51,0,1201,24,522,16,2,-1,?
2017-03-21 14:13:40.009000,610,24,3,0,-576,24,-611,0,116,8,470,16,-247,0,253,0,1514,0,-17,8,416,8,-43,0,1206,24,521,16,2,-1,?
2017-03-21 14:13:40.017000,614,24,6,0,-576,24,-615,0,115,8,468,16,-251,0,248,0,1511,0,-22,8,405,8,-56,0,1196,24,522,16,2,-1,?
2017-03-21 14:13:40.025000,609,24,7,0,-582,24,-617,0,115,8,463,16,-269,0,232,0,1496,0,-38,8,388,8,-68,0,1186,24,519,16,2,-1,?
2017-03-21 14:13:40.032000,606,24,3,0,-582,24,-618,0,113,8,465,16,-279,0,219,0,1489,0,-49,8,393,8,-64,0,1192,24,521,16,2,-1,?
2017-03-21 14:13:40.040000,612,24,2,0,-581,24,-617,0,115,8,467,16,-271,0,223,0,1501,0,-38,8,409,8,-52,0,1201,24,524,16,2,-1,?
2017-03-21 14:13:40.048000,613,24,10,0,-581,24,-614,0,117,8,467,16,-245,0,250,0,1519,0,-18,8,422,8,-36,0,1205,24,526,16,2,-1,?
2017-03-21 14:13:40.056000,610,24,8,0,-578,24,-614,0,115,8,470,16,-245,0,249,0,1514,0,-23,8,417,8,-38,0,1201,24,524,16,2,-1,?
2017-03-21 14:13:40.064000,605,24,-1,0,-581,24,-616,0,112,8,468,16,-270,0,224,0,1491,0,-45,8,389,8,-64,0,1186,24,519,16,2,-1,?
2017-03-21 14:13:40.072000,603,24,1,0,-582,24,-618,0,110,8,466,16,-286,0,216,0,1484,0,-51,8,382,8,-74,0,1184,24,519,16,2,-1,?
2017-03-21 14:13:40.079000,612,24,8,0,-579,24,-615,0,115,8,469,16,-267,0,237,0,1502,0,-30,8,405,8,-47,0,1200,24,523,16,2,-1,?
2017-03-21 14:13:40.087000,616,24,9,0,-578,24,-612,0,118,8,472,16,-240,0,259,0,1522,0,-9,8,421,8,-29,0,1214,24,528,16,2,-1,?
2017-03-21 14:13:40.095000,607,24,5,0,-579,24,-616,0,111,8,472,16,-246,0,252,0,1516,0,-27,8,412,8,-51,0,1207,24,526,16,2,-1,?
2017-03-21 14:13:40.103000,600,24,2,0,-580,24,-617,0,107,8,469,16,-269,0,227,0,1495,0,-56,8,390,8,-73,0,1180,24,518,16,2,-1,?
2017-03-21 14:13:40.111000,606,24,7,0,-579,24,-612,0,113,8,469,16,-274,0,219,0,1491,0,-46,8,392,8,-70,0,1181,24,522,16,2,-1,?
2017-03-21 14:13:40.118000,611,24,9,0,-580,24,-612,0,117,8,471,16,-254,0,242,0,1510,0,-19,8,416,8,-50,0,1205,24,529,16,2,-1,?
2017-03-21 14:13:40.126000,609,24,0,0,-583,24,-614,0,113,8,469,16,-248,0,251,0,1518,0,-21,8,415,8,-41,0,1209,24,521,16,2,-1,?
2017-03-21 14:13:40.135000,606,24,-6,0,-579,24,-616,0,114,8,469,16,-267,0,226,0,1496,0,-38,8,400,8,-57,0,1196,24,518,16,2,-1,?
2017-03-21 14:13:40.143000,606,24,1,0,-579,24,-615,0,118,8,471,16,-264,0,228,0,1489,0,-38,8,396,8,-61,0,1189,24,522,16,2,-1,?
2017-03-21 14:13:40.151000,609,24,6,0,-581,24,-611,0,113,8,471,16,-255,0,250,0,1509,0,-31,8,404,8,-44,0,1199,24,524,16,2,-1,?
2017-03-21 14:13:40.159000,607,24,2,8,-578,24,-609,0,110,8,469,16,-261,0,245,0,1512,0,-29,8,409,8,-42,0,1205,24,522,16,2,-1,?
2017-03-21 14:13:40.165000,602,24,-1,8,-579,24,-612,0,114,8,468,16,-262,0,228,0,1496,0,-33,8,399,8,-59,0,1193,24,518,0,2,-1,?
2017-03-21 14:13:40.173000,604,24,3,8,-583,16,-617,0,114,8,470,16,-266,0,221,0,1487,0,-41,8,395,8,-67,0,1188,24,520,0,2,-1,?
2017-03-21 14:13:40.181000,611,24,8,8,-583,16,-618,24,112,8,467,16,-261,0,238,0,1500,0,-35,8,403,8,-55,0,1198,24,523,0,2,-1,?
2017-03-21 14:13:40.189000,613,24,8,8,-577,16,-615,24,119,0,468,16,-243,0,254,0,1515,0,-23,8,417,8,-42,0,1208,24,525,0,2,-1,?
2017-03-21 14:13:40.197000,606,24,8,8,-572,16,-611,24,123,0,472,0,-250,0,241,0,1506,0,-26,8,412,8,-46,0,1202,24,522,0,2,-1,?
2017-03-21 14:13:40.204000,603,24,4,8,-578,16,-609,24,114,0,467,0,-266,24,224,0,1492,0,-40,8,385,8,-65,0,1183,24,518,0,2,-1,?
2017-03-21 14:13:40.212000,608,24,1,8,-578,16,-616,24,111,0,464,0,-272,24,218,0,1488,0,-48,8,385,8,-73,0,1183,24,521,0,2,-1,?
2017-03-21 14:13:40.220000,611,24,4,8,-577,16,-618,24,115,0,467,0,-259,24,234,0,1503,24,-35,8,407,8,-54,0,1199,24,524,0,2,-1,?
2017-03-21 14:13:40.228000,615,24,10,8,-578,16,-615,24,116,0,475,0,-235,24,262,0,1523,24,-14,24,420,8,-37,0,1206,24,523,0,2,-1,?
2017-03-21 14:13:40.236000,615,24,9,8,-577,16,-617,24,117,0,475,0,-245,24,253,0,1514,24,-23,24,415,24,-47,0,1200,24,524,0,2,-1,?
2017-03-21 14:13:40.244000,607,24,-1,8,-580,16,-615,24,117,0,468,0,-267,24,224,0,1493,24,-51,24,390,24,-69,0,1186,24,524,0,2,-1,?
2017-03-21 14:13:40.251000,606,24,-4,8,-580,16,-614,24,114,0,465,0,-272,24,218,0,1488,24,-53,24,385,24,-73,0,1186,8,522,0,2,-1,?
2017-03-21 14:13:40.259000,612,24,3,8,-580,16,-615,24,115,0,467,0,-254,24,237,0,1502,24,-29,24,408,24,-52,0,1199,8,520,0,2,-1,?
2017-03-21 14:13:40.267000,612,24,3,8,-580,16,-615,24,120,0,471,0,-240,24,248,0,1512,24,-17,24,419,24,-39,0,1201,8,523,0,2,-1,?
2017-03-21 14:13:40.275000,608,24,6,8,-574,16,-614,24,117,0,474,0,-259,24,233,0,1504,24,-38,24,401,24,-56,16,1195,8,524,0,2,-1,?
2017-03-21 14:13:40.283000,606,24,5,8,-576,16,-614,24,112,0,463,0,-275,24,221,0,1491,24,-54,24,385,24,-73,16,1185,8,520,0,2,-1,?
2017-03-21 14:13:40.290000,608,24,0,8,-579,16,-623,24,115,0,460,0,-267,24,227,0,1493,24,-36,24,402,24,-61,16,1191,8,524,0,2,-1,?
2017-03-21 14:13:40.298000,611,24,3,8,-579,16,-623,24,120,0,473,0,-255,24,238,0,1508,24,-20,24,417,24,-45,16,1200,8,527,0,2,-1,?
2017-03-21 14:13:40.306000,611,24,9,8,-579,16,-612,24,114,0,474,0,-257,24,239,0,1506,24,-34,24,404,24,-51,16,1193,8,520,0,2,-1,?
2017-03-21 14:13:40.315000,609,24,4,8,-575,16,-613,24,112,0,466,0,-266,24,226,0,1489,24,-48,24,396,24,-63,16,1189,8,518,0,2,-1,?
2017-03-21 14:13:40.322000,608,24,0,8,-576,16,-621,24,116,0,468,0,-258,24,234,0,1497,24,-35,24,403,24,-58,16,1192,8,524,0,2,-1,?
2017-03-21 14:13:40.331000,609,24,7,8,-581,16,-613,24,115,0,473,0,-249,24,251,0,1513,24,-22,24,414,24,-47,16,1200,8,526,0,2,-1,?
2017-03-21 14:13:40.338000,613,24,8,8,-580,16,-605,24,115,0,473,0,-256,24,240,0,1504,24,-24,24,414,24,-50,16,1203,8,523,0,2,-1,?
2017-03-21 14:13:40.346000,608,24,2,8,-576,16,-612,24,117,0,469,0,-261,24,223,0,1494,24,-35,24,392,24,-61,16,1191,8,522,0,2,-1,?
2017-03-21 14:13:40.354000,601,24,1,8,-580,16,-615,24,114,0,469,0,-267,24,215,0,1490,24,-47,24,384,24,-64,16,1187,8,525,0,2,-1,?
2017-03-21 14:13:40.362000,606,24,3,8,-585,16,-607,24,113,0,469,0,-258,24,232,0,1498,24,-38,24,406,24,-55,16,1196,8,524,0,2,-1,?
2017-03-21 14:13:40.370000,616,24,7,8,-580,16,-603,24,116,0,468,0,-237,24,253,0,1513,24,-18,24,424,24,-38,16,1207,8,527,0,2,-1,?
2017-03-21 14:13:40.378000,615,24,11,8,-571,16,-608,24,113,0,470,0,-253,24,241,0,1510,24,-17,24,417,24,-43,16,1205,8,529,0,2,-1,?
2017-03-21 14:13:40.385000,607,24,6,8,-578,16,-610,24,109,0,471,0,-275,24,223,0,1495,24,-39,24,392,24,-66,16,1186,8,522,0,2,-1,?
2017-03-21 14:13:40.392000,604,24,0,8,-581,16,-614,24,110,0,473,0,-277,24,218,0,1486,24,-56,24,385,24,-77,16,1182,8,517,0,2,-1,?
2017-03-21 14:13:40.400000,608,24,-3,8,-575,16,-611,24,113,0,473,0,-261,24,229,0,1501,24,-39,24,403,24,-57,16,1200,8,518,0,2,-1,?
2017-03-21 14:13:40.408000,612,24,1,8,-574,16,-611,24,117,0,473,0,-240,24,251,0,1521,24,-17,24,421,24,-35,16,1214,8,524,0,2,-1,?
2017-03-21 14:13:40.416000,612,24,9,8,-579,16,-619,24,117,0,475,0,-249,24,247,0,1512,24,-27,24,414,24,-49,16,1201,8,525,0,2,-1,?
2017-03-21 14:13:40.423000,606,24,7,8,-582,16,-616,24,113,0,474,0,-272,24,218,0,1489,24,-49,24,383,24,-70,16,1173,8,516,0,2,-1,?
2017-03-21 14:13:40.431000,603,24,3,8,-577,16,-611,24,111,0,472,0,-271,24,211,0,1486,24,-49,24,382,24,-66,16,1184,8,520,0,2,-1,?
2017-03-21 14:13:40.439000,609,24,6,8,-574,16,-612,24,116,0,469,0,-252,24,242,0,1510,24,-30,24,413,24,-47,16,1211,8,529,0,2,-1,?
2017-03-21 14:13:40.448000,614,24,7,8,-576,16,-612,24,117,0,469,0,-248,24,257,0,1518,24,-20,24,424,24,-43,16,1207,8,524,0,2,-1,?
2017-03-21 14:13:40.455000,612,24,4,8,-575,16,-613,24,113,0,471,0,-265,24,230,0,1498,24,-35,24,407,24,-57,16,1190,8,517,0,2,-1,?
2017-03-21 14:13:40.464000,605,24,1,8,-579,16,-613,24,113,0,468,0,-264,24,227,0,1493,24,-42,24,391,24,-62,16,1183,8,519,0,2,-1,?
2017-03-21 14:13:40.470000,607,24,4,8,-580,16,-613,24,115,0,465,0,-256,24,242,0,1503,24,-29,24,407,24,-56,16,1195,8,527,0,2,-1,?
2017-03-21 14:13:40.479000,610,24,6,8,-578,16,-612,24,113,0,467,0,-258,24,237,0,1506,24,-26,24,422,24,-53,16,1203,8,527,0,2,-1,?
2017-03-21 14:13:40.486000,605,24,7,8,-583,16,-611,24,113,0,469,0,-261,24,231,0,1505,24,-35,24,401,24,-57,16,1188,8,523,0,2,-1,?
2017-03-21 14:13:40.494000,604,24,8,8,-586,16,-611,24,113,0,466,0,-268,24,227,0,1497,24,-40,24,388,24,-64,16,1183,8,528,0,2,-1,?
2017-03-21 14:13:40.502000,607,24,0,8,-586,16,-608,24,113,0,463,0,-258,24,237,0,1501,24,-34,24,401,24,-56,16,1196,8,527,0,2,-1,?
2017-03-21 14:13:40.509000,607,24,1,8,-580,16,-610,24,114,0,471,0,-246,24,253,0,1516,24,-20,24,412,24,-40,16,1204,8,525,0,2,-1,?
2017-03-21 14:13:40.518000,607,24,11,8,-576,16,-616,24,113,0,475,0,-254,24,244,0,1509,24,-20,24,410,24,-41,16,1199,8,529,0,2,-1,?
2017-03-21 14:13:40.525000,604,24,8,8,-583,16,-612,24,113,0,470,0,-260,24,225,0,1497,24,-38,24,396,24,-60,16,1186,8,524,0,2,-1,?
2017-03-21 14:13:40.534000,599,24,-1,8,-584,16,-615,24,114,0,471,0,-270,24,216,0,1495,24,-53,24,390,24,-72,16,1184,8,520,0,2,-1,?
2017-03-21 14:13:40.541000,603,24,-1,8,-583,16,-620,24,115,0,470,0,-264,24,236,0,1505,24,-40,24,401,24,-56,16,1196,8,520,0,2,-1,?
2017-03-21 14:13:40.550000,612,24,2,8,-582,16,-616,24,119,0,467,0,-240,24,261,0,1518,24,-15,24,422,24,-30,16,1208,8,524,0,2,-1,?
2017-03-21 14:13:40.556000,612,24,7,8,-579,16,-613,24,119,0,471,0,-247,24,243,0,1509,24,-15,24,425,24,-34,16,1206,8,528,0,2,-1,?
2017-03-21 14:13:40.564000,601,24,8,8,-582,16,-615,24,113,0,472,0,-275,24,213,0,1488,24,-39,24,397,24,-60,16,1184,8,526,0,2,-1,?
2017-03-21 14:13:40.572000,600,24,7,8,-582,16,-624,24,112,0,473,0,-282,24,214,0,1482,24,-54,24,383,24,-75,16,1179,8,522,0,2,-1,?
2017-03-21 14:13:40.580000,610,24,6,8,-580,16,-622,24,118,0,473,0,-255,24,242,0,1500,24,-33,24,402,24,-59,16,1195,8,521,0,2,-1,?
2017-03-21 14:13:40.588000,613,24,5,8,-578,16,-612,24,117,0,473,0,-234,24,255,0,1516,24,-11,24,423,24,-37,16,1204,8,529,0,2,-1,?
2017-03-21 14:13:40.596000,605,24,3,8,-578,16,-614,24,113,0,470,0,-255,24,229,0,1502,24,-30,24,412,24,-48,16,1199,8,529,0,2,-1,?
2017-03-21 14:13:40.603000,600,24,0,8,-583,16,-620,24,112,0,467,0,-274,24,214,0,1487,24,-52,24,379,24,-71,16,1181,8,516,0,2,-1,?
2017-03-21 14:13:40.611000,610,24,2,8,-577,16,-614,24,114,0,471,0,-264,24,226,0,1495,24,-39,24,388,24,-64,16,1185,8,518,0,2,-1,?
2017-03-21 14:13:40.619000,616,24,10,8,-571,16,-609,24,115,0,472,0,-251,24,239,0,1508,24,-19,24,417,24,-42,16,1202,8,529,0,2,-1,?
2017-03-21 14:13:40.627000,609,24,8,8,-578,16,-613,24,111,0,469,0,-251,24,239,0,1506,24,-26,24,408,24,-42,16,1197,8,529,0,2,-1,?
2017-03-21 14:13:40.635000,604,24,1,8,-580,16,-614,24,113,0,476,0,-267,24,223,0,1493,24,-44,24,393,24,-61,16,1186,8,520,0,2,-1,?
2017-03-21 14:13:40.642000,610,24,3,8,-584,16,-610,24,120,0,479,0,-264,24,226,0,1498,24,-37,24,399,24,-59,16,1190,8,517,0,2,-1,?
2017-03-21 14:13:40.650000,614,24,7,8,-585,16,-612,24,115,0,470,0,-247,24,243,0,1508,24,-20,24,416,24,-40,16,1205,8,523,0,2,-1,?
2017-03-21 14:13:40.658000,610,8,2,8,-576,16,-612,24,110,0,469,0,-250,24,235,0,1504,24,-23,24,418,24,-41,16,1205,8,526,0,2,-1,?
2017-03-21 14:13:40.666000,604,8,-1,0,-578,16,-608,24,117,0,472,0,-263,24,225,0,1498,24,-34,24,396,24,-60,16,1187,8,521,0,2,-1,?
2017-03-21 14:13:40.674000,601,8,4,0,-584,16,-614,24,116,0,474,0,-272,24,226,0,1493,24,-44,24,387,24,-68,16,1187,8,521,16,2,-1,?
2017-03-21 14:13:40.681000,610,8,8,0,-581,24,-617,24,112,0,471,0,-262,24,239,0,1502,24,-41,24,401,24,-53,16,1199,8,522,16,2,-1,?
2017-03-21 14:13:40.689000,619,8,6,0,-576,24,-609,24,116,0,471,0,-243,24,254,0,1516,24,-22,24,420,24,-38,16,1207,8,520,16,2,-1,?
2017-03-21 14:13:40.697000,613,8,4,0,-578,24,-609,24,117,16,474,0,-245,24,244,0,1507,24,-17,24,419,24,-42,16,1212,8,521,16,2,-1,?
2017-03-21 14:13:40.705000,601,8,2,0,-583,24,-613,24,115,16,472,0,-263,24,226,0,1489,24,-37,24,392,24,-59,16,1196,8,517,16,2,-1,?
2017-03-21 14:13:40.713000,605,8,1,0,-576,24,-616,24,111,16,471,0,-280,24,216,0,1486,24,-54,24,382,24,-72,16,1181,8,518,16,2,-1,?
2017-03-21 14:13:40.721000,614,8,2,0,-576,24,-611,24,106,16,473,0,-266,24,232,8,1502,24,-41,24,402,24,-62,16,1190,8,523,16,2,-1,?
2017-03-21 14:13:40.728000,614,8,6,0,-581,24,-610,24,110,16,472,0,-238,24,259,8,1518,0,-10,24,423,24,-37,16,1208,8,525,16,2,-1,?
2017-03-21 14:13:40.736000,612,8,8,0,-579,24,-618,24,116,16,472,0,-249,24,246,8,1509,0,-16,0,419,24,-36,16,1209,8,527,16,2,-1,?
2017-03-21 14:13:40.744000,607,8,6,0,-580,24,-613,24,115,16,470,0,-274,24,217,8,1490,0,-52,0,386,16,-66,16,1183,8,522,16,2,-1,?
2017-03-21 14:13:40.752000,603,8,3,0,-577,24,-611,24,111,16,464,0,-271,24,214,8,1488,0,-56,0,379,16,-76,0,1180,8,522,16,2,-1,?
2017-03-21 14:13:40.760000,607,8,3,0,-573,24,-614,24,110,16,462,0,-244,24,236,8,1503,0,-25,0,411,16,-52,0,1200,16,525,16,2,-1,?
2017-03-21 14:13:40.768000,610,8,5,0,-581,24,-613,24,112,16,468,0,-235,24,248,8,1511,0,-13,0,422,16,-41,0,1204,16,523,16,2,-1,?
2017-03-21 14:13:40.775000,605,8,6,0,-581,24,-620,24,113,16,471,0,-264,24,230,8,1499,0,-37,0,399,24,-62,0,1198,16,520,16,2,-1,?
2017-03-21 14:13:40.783000,603,8,2,0,-577,24,-619,24,112,16,468,0,-270,24,222,8,1493,0,-47,0,388,24,-70,0,1188,16,521,16,2,-1,?
2017-03-21 14:13:40.791000,611,8,-1,0,-581,24,-607,24,112,16,469,0,-255,24,240,8,1502,0,-32,0,408,24,-52,0,1195,16,528,16,2,-1,?
2017-03-21 14:13:40.800000,612,8,3,0,-584,24,-609,24,112,16,472,0,-255,24,245,8,1502,0,-22,0,418,24,-41,0,1205,16,526,16,2,-1,?
2017-03-21 14:13:40.807000,605,8,8,0,-579,24,-618,24,112,16,473,0,-259,24,233,8,1500,0,-33,0,396,24,-54,0,1193,16,517,16,2,-1,?
2017-03-21 14:13:40.814000,606,8,9,0,-573,24,-614,24,112,16,469,0,-265,24,225,8,1497,0,-49,0,392,24,-72,0,1188,16,519,16,2,-1,?
2017-03-21 14:13:40.823000,613,8,4,0,-582,24,-609,24,114,16,466,0,-258,24,237,8,1503,0,-41,0,406,24,-62,0,1198,16,525,16,2,-1,?
2017-03-21 14:13:40.830000,614,8,8,0,-583,24,-612,24,116,16,471,0,-245,24,248,8,1513,0,-20,0,418,24,-39,0,1206,16,523,16,2,-1,?
2017-03-21 14:13:40.838000,608,8,13,0,-572,24,-614,24,115,16,468,0,-255,24,241,8,1507,0,-19,0,419,24,-39,0,1206,16,519,16,2,-1,?
2017-03-21 14:13:40.846000,604,8,2,0,-578,24,-613,24,112,16,462,0,-268,24,229,8,1497,0,-42,0,397,24,-65,0,1191,16,519,16,2,-1,?
2017-03-21 14:13:40.855000,602,8,-2,0,-583,24,-615,24,108,16,470,0,-272,24,216,8,1495,0,-60,0,388,24,-81,0,1180,16,523,16,2,-1,?
2017-03-21 14:13:40.861000,603,8,4,0,-579,24,-615,24,109,16,474,0,-258,24,231,8,1509,0,-43,0,403,24,-58,0,1187,16,520,16,2,-1,?
2017-03-21 14:13:40.869000,607,8,3,0,-576,24,-611,24,115,16,468,0,-238,24,256,8,1522,0,-17,0,424,24,-29,0,1204,16,522,16,2,-1,?
2017-03-21 14:13:40.877000,613,8,6,0,-574,24,-613,24,116,16,469,0,-246,24,244,8,1508,0,-19,0,427,24,-37,0,1211,16,523,16,2,-1,?
2017-03-21 14:13:40.885000,608,8,9,0,-577,24,-613,24,113,16,468,0,-266,24,220,8,1487,0,-42,0,395,24,-64,0,1190,16,514,16,2,-1,?
2017-03-21 14:13:40.893000,604,8,2,0,-577,24,-615,24,111,16,464,0,-278,24,211,8,1484,0,-51,0,382,24,-70,0,1180,16,518,16,2,-1,?
2017-03-21 14:13:40.900000,612,8,1,0,-577,24,-618,24,118,16,465,0,-267,24,232,8,1502,0,-32,0,406,24,-50,0,1194,16,530,16,2,-1,?
2017-03-21 14:13:40.908000,618,8,5,0,-578,24,-615,24,119,16,468,0,-239,24,260,8,1516,0,-14,0,425,24,-37,0,1206,16,528,16,2,-1,?
2017-03-21 14:13:40.916000,612,8,5,0,-576,24,-611,24,112,16,468,0,-250,24,243,8,1503,0,-29,0,413,24,-48,0,1201,16,523,16,2,-1,?
2017-03-21 14:13:40.924000,605,8,4,0,-581,24,-613,24,112,16,462,0,-272,24,219,8,1490,0,-53,0,389,24,-67,0,1187,16,520,16,2,-1,?
2017-03-21 14:13:40.932000,607,8,6,0,-585,24,-619,24,113,16,463,0,-270,24,228,8,1493,0,-46,0,396,24,-64,0,1193,16,520,16,2,-1,?
2017-03-21 14:13:40.940000,611,8,8,0,-582,24,-612,24,112,16,470,0,-253,24,242,8,1506,0,-23,0,422,24,-45,0,1205,16,521,16,2,-1,?
2017-03-21 14:13:40.947000,608,8,2,0,-574,24,-604,24,111,16,470,0,-246,24,244,8,1508,0,-24,0,418,24,-45,0,1199,16,523,16,2,-1,?
2017-03-21 14:13:40.956000,602,8,1,0,-570,24,-610,24,113,16,465,0,-263,24,229,8,1497,0,-46,0,394,24,-69,0,1192,16,527,16,2,-1,?
2017-03-21 14:13:40.963000,606,8,6,0,-576,24,-613,24,116,16,466,0,-265,24,230,8,1498,0,-42,0,390,24,-64,0,1189,16,525,16,2,-1,?
2017-03-21 14:13:40.971000,613,8,8,0,-577,24,-612,24,114,16,471,0,-248,24,243,8,1509,0,-22,0,413,24,-41,0,1197,16,525,16,2,-1,?
2017-03-21 14:13:40.979000,612,8,5,0,-574,24,-612,24,108,16,471,0,-250,24,238,8,1505,0,-22,0,420,24,-44,0,1205,16,525,16,2,-1,?
2017-03-21 14:13:40.986000,606,8,3,0,-574,24,-612,24,107,16,468,0,-261,24,227,8,1494,0,-38,0,393,24,-58,0,1192,16,525,16,2,-1,?
2017-03-21 14:13:40.995000,601,8,4,0,-574,24,-612,24,115,16,469,0,-270,24,219,8,1488,0,-53,0,383,24,-67,0,1181,16,528,16,2,-1,?
2017-03-21 14:13:41.002000,605,8,6,0,-580,24,-611,24,117,16,467,0,-259,24,234,8,1499,0,-38,0,400,24,-60,0,1190,16,520,16,2,-1,?
2017-03-21 14:13:41.011000,613,8,9,0,-577,24,-613,24,112,16,471,0,-243,24,253,8,1515,0,-12,0,424,24,-41,0,1205,16,522,16,2,-1,?
2017-03-21 14:13:41.018000,613,8,8,0,-571,24,-613,24,109,16,470,0,-248,24,242,8,1509,0,-19,0,425,24,-35,0,1206,16,530,16,2,-1,?
2017-03-21 14:13:41.027000,608,8,3,0,-581,24,-611,24,114,16,464,0,-262,24,219,8,1492,0,-45,0,400,24,-54,0,1189,16,522,16,2,-1,?
2017-03-21 14:13:41.034000,607,8,7,0,-581,24,-616,24,116,16,469,0,-281,24,210,8,1480,0,-53,0,387,24,-79,0,1182,16,512,16,2,-1,?
2017-03-21 14:13:41.041000,606,8,9,0,-573,24,-614,24,110,16,466,0,-264,24,227,8,1494,0,-38,0,399,24,-66,0,1191,16,520,16,2,-1,?
